Time (s)	Motor Command (V)	Desired Position  (V)	Actual Position (V)
0.003	2.000	2.100	1.969
0.055	2.000	2.100	1.969
0.104	2.000	2.100	1.969
0.155	2.000	2.100	1.969
0.204	2.000	2.100	1.967
0.254	2.000	2.100	1.971
0.303	2.000	2.100	1.969
0.352	2.000	2.100	1.969
0.403	2.000	2.100	1.971
0.453	2.000	2.100	1.969
0.503	2.000	2.100	1.971
0.553	2.000	2.100	1.969
0.603	2.000	2.100	1.971
0.653	2.000	2.100	1.967
0.703	2.000	2.100	1.969
0.753	2.000	2.100	1.970
0.803	2.000	2.100	1.968
0.853	2.000	2.100	1.972
0.903	2.000	2.100	1.970
0.953	2.000	2.100	1.967
1.003	2.000	2.100	1.969
1.053	2.000	2.100	1.964
1.102	2.000	2.100	1.965
1.153	2.000	2.100	1.969
1.203	2.000	2.100	1.962
1.252	2.000	2.100	1.964
1.303	2.000	2.100	1.967
1.353	2.000	2.100	1.962
1.402	2.000	2.100	1.970
1.452	2.000	2.100	1.967
1.502	2.000	2.100	1.965
1.552	2.000	2.100	1.970
1.602	2.000	2.100	1.963
1.652	2.000	2.100	1.967
1.702	2.000	2.100	1.968
1.752	2.000	2.100	1.969
1.802	2.000	2.100	1.969
1.852	2.000	2.100	1.968
1.901	2.000	2.100	1.969
1.951	2.000	2.100	1.968
2.001	2.000	2.100	1.969
2.051	2.000	2.100	1.969
2.100	2.100	2.100	1.967
2.150	2.100	2.100	1.968
2.201	2.100	2.100	1.968
2.251	2.100	2.100	1.968
2.300	2.100	2.100	1.967
2.351	2.100	2.100	1.969
2.400	2.100	2.100	1.967
2.450	2.100	2.100	1.968
2.501	2.100	2.100	1.969
2.551	2.100	2.100	1.965
2.601	2.300	2.100	1.961
2.651	2.400	2.100	1.967
2.701	2.600	2.100	1.967
2.750	2.700	2.100	1.968
2.801	2.900	2.100	1.968
2.850	3.000	2.100	1.967
2.899	3.200	2.100	1.968
2.949	3.300	2.100	1.970
2.999	3.500	2.100	1.972
3.049	3.600	2.100	1.967
3.098	3.800	2.100	1.967
3.147	3.900	2.100	1.968
3.197	4.100	2.100	1.968
3.246	4.200	2.100	1.968
3.296	4.400	2.100	1.969
3.346	4.500	2.100	1.968
3.396	4.700	2.100	1.968
3.447	4.800	2.100	1.969
3.496	5.000	2.100	1.970
3.546	5.100	2.100	1.968
3.597	5.300	2.100	1.972
3.647	5.500	2.100	1.959
3.696	5.600	2.100	1.968
3.747	5.700	2.100	1.969
3.796	5.900	2.100	1.967
3.845	6.000	2.100	1.968
3.896	6.200	2.100	1.968
3.946	6.400	2.100	1.967
3.995	6.500	2.100	1.969
4.046	6.500	2.100	1.968
4.096	6.500	2.100	1.968
4.145	6.500	2.100	1.968
4.195	6.500	2.100	1.968
4.244	6.500	2.100	1.967
4.294	6.500	2.100	1.968
4.344	6.500	2.100	1.966
4.394	6.500	2.100	1.966
4.444	6.500	2.100	1.966
4.494	6.500	2.100	1.968
4.544	6.500	2.100	1.967
4.594	6.500	2.100	1.961
4.644	6.500	2.100	1.967
4.694	6.600	2.100	1.967
4.744	6.600	2.100	1.966
4.795	6.600	2.100	1.966
4.844	6.600	2.100	1.965
4.894	6.600	2.100	1.969
4.943	6.600	2.100	1.967
4.992	6.600	2.100	1.966
5.043	6.600	2.100	1.968
5.093	6.600	2.100	1.964
5.142	6.600	2.100	1.963
5.193	6.800	2.100	1.968
5.243	6.900	2.100	1.966
5.292	7.000	2.100	1.968
5.342	7.200	2.100	1.967
5.392	7.400	2.100	1.966
5.441	7.500	2.100	1.967
5.491	7.700	2.100	1.969
5.541	7.800	2.100	1.967
5.591	8.000	2.100	1.952
5.641	8.100	2.100	1.968
5.691	8.200	2.100	1.967
5.741	8.400	2.100	1.964
5.792	8.600	2.100	1.963
5.841	8.700	2.100	1.963
5.891	8.900	2.100	1.967
5.942	9.000	2.100	1.968
5.992	9.200	2.100	1.963
6.041	9.200	2.100	1.967
6.092	9.200	2.100	1.967
6.141	9.200	2.100	1.968
6.191	9.200	2.100	1.971
6.242	9.200	2.100	1.973
6.292	9.200	2.100	1.973
6.341	9.200	2.100	1.970
6.391	9.200	2.100	1.978
6.440	9.200	2.100	1.981
6.490	9.200	2.100	1.976
6.541	9.100	2.100	1.988
6.590	9.100	2.100	1.992
6.640	9.100	2.100	1.997
6.690	9.100	2.100	2.001
6.740	9.100	2.100	2.005
6.790	9.100	2.100	2.011
6.840	9.100	2.100	2.010
6.889	9.100	2.100	2.012
6.940	9.100	2.100	2.013
6.990	9.100	2.100	2.016
7.039	9.100	2.100	2.014
7.090	9.100	2.100	2.014
7.140	9.100	2.100	2.015
7.189	9.100	2.100	2.015
7.240	9.100	2.100	2.014
7.290	9.100	2.100	2.015
7.339	9.100	2.100	2.014
7.390	9.100	2.100	2.014
7.440	9.100	2.100	2.015
7.489	9.100	2.100	2.015
7.539	9.100	2.100	2.014
7.589	9.100	2.100	2.014
7.639	9.100	2.100	2.016
7.689	9.100	2.100	2.015
7.739	9.100	2.100	2.012
7.788	9.100	2.100	2.014
7.839	9.100	2.100	2.015
7.888	9.100	2.100	2.016
7.938	9.100	2.100	2.014
7.989	9.100	2.100	2.016
8.039	9.100	2.100	2.016
8.088	9.100	2.100	2.015
8.139	9.100	2.100	2.016
8.189	9.100	2.100	2.015
8.238	9.100	2.100	2.014
8.289	9.100	2.100	2.016
8.339	9.100	2.100	2.016
8.389	9.100	2.100	2.014
8.439	9.100	2.100	2.016
8.489	9.100	2.100	2.017
8.539	9.100	2.100	2.016
8.589	9.100	2.100	2.014
8.640	9.100	2.100	2.017
8.689	9.100	2.100	2.017
8.739	9.100	2.100	2.015
8.790	9.100	2.100	2.018
8.839	9.100	2.100	2.016
8.889	9.100	2.100	2.016
8.940	9.100	2.100	2.018
8.989	9.100	2.100	2.017
9.038	9.100	2.100	2.016
9.088	9.100	2.100	2.019
9.137	9.100	2.100	2.017
9.188	9.100	2.100	2.018
9.237	9.100	2.100	2.016
9.286	9.100	2.100	2.018
9.337	9.100	2.100	2.018
9.386	9.100	2.100	2.018
9.436	9.100	2.100	2.018
9.486	9.100	2.100	2.019
9.535	9.100	2.100	2.017
9.585	9.100	2.100	2.018
9.634	9.100	2.100	2.016
9.684	9.100	2.100	2.016
9.734	9.100	2.100	2.019
9.783	9.100	2.100	2.017
9.834	9.100	2.100	2.017
9.884	9.100	2.100	2.018
9.934	9.100	2.100	2.017
9.983	9.100	2.100	2.021
10.034	9.100	2.100	2.018
10.084	9.100	2.100	2.020
10.134	9.100	2.100	2.018
10.184	9.100	2.100	2.020
10.233	9.100	2.100	2.020
10.283	9.100	2.100	2.020
10.333	9.100	2.100	2.024
10.382	9.100	2.100	2.021
10.432	9.100	2.100	2.024
10.481	9.100	2.100	2.023
10.531	9.100	2.100	2.026
10.580	9.100	2.100	2.025
10.630	9.100	2.100	2.025
10.680	9.100	2.100	2.022
10.729	9.100	2.100	2.024
10.779	9.100	2.100	2.018
10.829	9.100	2.100	2.020
10.878	9.100	2.100	2.024
10.928	9.100	2.100	2.024
10.977	9.100	2.100	2.023
11.027	9.100	2.100	2.024
11.077	9.100	2.100	2.023
11.126	9.100	2.100	2.023
11.177	9.100	2.100	2.024
11.226	9.100	2.100	2.023
11.275	9.100	2.100	2.020
11.326	9.100	2.100	2.025
11.376	9.100	2.100	2.023
11.425	9.100	2.100	2.024
11.476	9.100	2.100	2.024
11.526	9.100	2.100	2.024
11.575	9.100	2.100	2.024
11.626	9.100	2.100	2.023
11.676	9.100	2.100	2.026
11.726	9.100	2.100	2.022
11.776	9.100	2.100	2.024
11.826	9.100	2.100	2.027
11.876	9.100	2.100	2.025
11.926	9.100	2.100	2.026
11.976	9.100	2.100	2.026
12.026	9.100	2.100	2.026
12.076	9.100	2.100	2.027
12.127	9.100	2.100	2.028
12.176	9.100	2.100	2.027
12.226	9.100	2.100	2.027
12.277	9.100	2.100	2.027
12.326	9.100	2.100	2.026
12.375	9.100	2.100	2.027
12.425	9.100	2.100	2.027
12.475	9.100	2.100	2.027
12.525	9.100	2.100	2.027
12.575	9.100	2.100	2.028
12.625	9.100	2.100	2.026
12.675	9.100	2.100	2.025
12.726	9.100	2.100	2.028
12.775	9.100	2.100	2.028
12.825	9.100	2.100	2.024
12.876	9.100	2.100	2.029
12.925	9.100	2.100	2.027
12.975	9.100	2.100	2.028
13.026	9.100	2.100	2.030
13.075	9.100	2.100	2.033
13.124	9.100	2.100	2.029
13.174	9.100	2.100	2.030
13.224	9.100	2.100	2.028
13.275	9.100	2.100	2.028
13.325	9.100	2.100	2.030
13.374	9.100	2.100	2.027
13.424	9.100	2.100	2.030
13.473	9.100	2.100	2.031
13.523	9.100	2.100	2.031
13.573	9.100	2.100	2.031
13.622	9.100	2.100	2.030
13.672	9.100	2.100	2.032
13.722	9.100	2.100	2.032
13.771	9.100	2.100	2.028
13.822	9.100	2.100	2.030
13.872	9.100	2.100	2.031
13.922	9.100	2.100	2.030
13.972	9.100	2.100	2.032
14.022	9.100	2.100	2.033
14.072	9.100	2.100	2.031
14.122	9.100	2.100	2.033
14.172	9.100	2.100	2.033
14.221	9.100	2.100	2.031
14.272	9.100	2.100	2.033
14.321	9.100	2.100	2.031
14.370	9.100	2.100	2.031
14.421	9.100	2.100	2.031
14.470	9.100	2.100	2.032
14.520	9.100	2.100	2.033
14.570	9.100	2.100	2.033
14.619	9.100	2.100	2.031
14.670	9.100	2.100	2.033
14.720	9.100	2.100	2.033
14.769	9.100	2.100	2.032
14.819	9.100	2.100	2.034
14.868	9.100	2.100	2.033
14.918	9.100	2.100	2.031
14.968	9.100	2.100	2.033
15.018	9.100	2.100	2.034
15.068	9.100	2.100	2.032
15.118	9.100	2.100	2.039
15.167	9.100	2.100	2.032
15.217	9.100	2.100	2.031
15.267	9.100	2.100	2.031
15.317	9.100	2.100	2.022
15.367	9.100	2.100	2.028
15.416	9.100	2.100	2.030
15.466	9.100	2.100	2.029
15.517	9.100	2.100	2.033
15.566	9.100	2.100	2.032
15.616	9.100	2.100	2.031
15.667	9.100	2.100	2.023
15.717	9.100	2.100	2.033
15.766	9.100	2.100	2.031
15.817	9.100	2.100	2.033
15.866	9.100	2.100	2.032
15.915	9.100	2.100	2.034
15.965	9.100	2.100	2.035
16.014	9.100	2.100	2.032
16.065	9.000	2.100	2.034
16.115	9.000	2.100	2.035
16.165	9.000	2.100	2.034
16.215	9.000	2.100	2.034
16.265	9.000	2.100	2.034
16.314	9.000	2.100	2.031
16.364	9.000	2.100	2.034
16.414	9.000	2.100	2.032
16.464	9.000	2.100	2.035
16.514	9.000	2.100	2.034
16.564	9.000	2.100	2.033
16.614	9.000	2.100	2.034
16.664	9.000	2.100	2.034
16.715	9.000	2.100	2.034
16.765	9.000	2.100	2.034
16.814	9.000	2.100	2.034
16.865	9.000	2.100	2.034
16.915	9.000	2.100	2.034
16.964	9.000	2.100	2.035
17.015	9.000	2.100	2.037
17.065	9.000	2.100	2.036
17.114	9.000	2.100	2.037
17.165	9.000	2.100	2.037
17.215	9.000	2.100	2.037
17.265	9.000	2.100	2.038
17.315	9.000	2.100	2.037
17.365	9.000	2.100	2.037
17.415	9.000	2.100	2.036
17.465	9.000	2.100	2.037
17.515	9.000	2.100	2.037
17.564	9.000	2.100	2.037
17.614	9.000	2.100	2.037
17.663	9.000	2.100	2.019
17.713	9.000	2.100	2.036
17.764	9.000	2.100	2.037
17.813	9.000	2.100	2.038
17.863	9.000	2.100	2.038
17.913	9.000	2.100	2.040
17.962	9.000	2.100	2.037
18.013	9.000	2.100	2.038
18.062	9.000	2.100	2.038
18.111	9.000	2.100	2.039
18.161	9.000	2.100	2.028
18.210	9.000	2.100	2.039
18.261	9.000	2.100	2.038
18.311	9.000	2.100	2.040
18.360	9.000	2.100	2.039
18.410	9.000	2.100	2.040
18.460	9.000	2.100	2.038
18.509	9.000	2.100	2.039
18.560	9.000	2.100	2.039
18.609	9.000	2.100	2.038
18.659	9.000	2.100	2.038
18.709	9.000	2.100	2.040
18.758	9.000	2.100	2.038
18.808	9.000	2.100	2.040
18.858	9.000	2.100	2.040
18.907	9.000	2.100	2.037
18.958	9.000	2.100	2.039
19.007	9.000	2.100	2.040
19.057	9.000	2.100	2.038
19.108	9.000	2.100	2.040
19.157	9.000	2.100	2.040
19.207	9.000	2.100	2.038
19.258	9.000	2.100	2.033
19.308	9.000	2.100	2.041
19.357	9.000	2.100	2.039
19.408	9.000	2.100	2.040
19.458	9.000	2.100	2.040
19.507	9.000	2.100	2.038
19.558	9.000	2.100	2.039
19.608	9.000	2.100	2.040
19.658	8.900	2.100	2.040
19.708	8.900	2.100	2.044
19.758	8.900	2.100	2.043
19.807	8.900	2.100	2.042
19.857	8.900	2.100	2.045
19.907	8.900	2.100	2.045
19.957	8.900	2.100	2.042
20.007	8.900	2.100	2.043
20.057	8.900	2.100	2.045
20.107	8.900	2.100	2.043
20.157	8.900	2.100	2.042
20.208	8.900	2.100	2.043
20.258	8.900	2.100	2.044
20.307	8.900	2.100	2.042
20.358	8.900	2.100	2.036
20.408	8.900	2.100	2.044
20.458	8.900	2.100	2.043
20.509	8.900	2.100	2.043
20.559	8.900	2.100	2.044
20.609	8.900	2.100	2.043
20.659	8.900	2.100	2.042
20.710	8.900	2.100	2.043
20.759	8.900	2.100	2.043
20.809	8.900	2.100	2.044
20.859	8.900	2.100	2.045
20.908	8.900	2.100	2.044
20.958	8.900	2.100	2.046
21.007	8.900	2.100	2.043
21.057	8.900	2.100	2.044
21.108	8.900	2.100	2.045
21.157	8.900	2.100	2.037
21.206	8.900	2.100	2.034
21.256	8.900	2.100	2.046
21.305	8.900	2.100	2.043
21.356	8.900	2.100	2.045
21.405	8.900	2.100	2.043
21.454	8.900	2.100	2.043
21.504	8.900	2.100	2.045
21.553	8.900	2.100	2.038
21.604	8.900	2.100	2.043
21.654	8.900	2.100	2.046
21.703	8.900	2.100	2.044
21.754	8.900	2.100	2.044
21.803	8.900	2.100	2.046
21.853	8.900	2.100	2.042
21.903	8.900	2.100	2.046
21.953	8.900	2.100	2.046
22.003	8.900	2.100	2.043
22.053	8.900	2.100	2.044
22.103	8.900	2.100	2.046
22.153	8.900	2.100	2.044
22.203	8.900	2.100	2.045
22.253	8.900	2.100	2.046
22.303	8.900	2.100	2.042
22.353	8.900	2.100	2.043
22.403	8.900	2.100	2.045
22.452	8.900	2.100	2.041
22.503	8.900	2.100	2.043
22.552	8.900	2.100	2.045
22.601	8.900	2.100	2.045
22.651	8.900	2.100	2.046
22.700	8.900	2.100	2.045
22.751	8.900	2.100	2.045
22.800	8.900	2.100	2.045
22.849	8.900	2.100	2.045
22.900	8.900	2.100	2.047
22.949	8.900	2.100	2.045
22.999	8.900	2.100	2.046
23.049	8.900	2.100	2.047
23.098	8.900	2.100	2.045
23.149	8.900	2.100	2.046
23.199	8.900	2.100	2.048
23.248	8.900	2.100	2.048
23.298	8.900	2.100	2.047
23.348	8.900	2.100	2.047
23.398	8.900	2.100	2.043
23.448	8.900	2.100	2.045
23.498	8.900	2.100	2.045
23.548	8.900	2.100	2.048
23.598	8.900	2.100	2.044
23.648	8.900	2.100	2.048
23.698	8.900	2.100	2.046
23.748	8.900	2.100	2.047
23.798	8.900	2.100	2.050
23.847	8.900	2.100	2.048
23.898	8.900	2.100	2.049
23.947	8.900	2.100	2.047
23.996	8.900	2.100	2.046
24.046	8.900	2.100	2.050
24.095	8.900	2.100	2.047
24.146	8.900	2.100	2.048
24.196	8.900	2.100	2.051
24.245	8.900	2.100	2.049
24.296	8.900	2.100	2.047
24.346	8.900	2.100	2.050
24.395	8.900	2.100	2.049
24.446	8.900	2.100	2.041
24.496	8.900	2.100	2.044
24.545	8.900	2.100	2.050
24.595	8.900	2.100	2.047
24.645	8.900	2.100	2.049
24.694	8.900	2.100	2.048
24.744	8.900	2.100	2.046
24.793	8.900	2.100	2.046
24.843	8.900	2.100	2.044
24.894	8.900	2.100	2.049
24.944	8.900	2.100	2.045
24.993	8.900	2.100	2.041
25.043	8.900	2.100	2.045
25.093	8.900	2.100	2.041
25.143	8.900	2.100	2.048
25.194	8.900	2.100	2.049
25.244	8.900	2.100	2.053
25.294	8.900	2.100	2.051
25.345	8.900	2.100	2.048
25.395	8.900	2.100	2.051
25.444	8.900	2.100	2.042
25.494	8.900	2.100	2.044
25.544	8.900	2.100	2.048
25.594	8.900	2.100	2.046
25.644	8.900	2.100	2.040
25.694	8.900	2.100	2.047
25.744	8.900	2.100	2.049
25.794	8.900	2.100	2.053
25.843	8.900	2.100	2.053
25.893	8.900	2.100	2.049
25.943	8.900	2.100	2.054
25.993	8.900	2.100	2.053
26.043	8.900	2.100	2.051
26.094	8.900	2.100	2.054
26.143	8.900	2.100	2.053
26.193	8.900	2.100	2.053
26.244	8.900	2.100	2.051
26.294	8.900	2.100	2.055
26.343	8.900	2.100	2.037
26.394	8.900	2.100	2.054
26.444	8.900	2.100	2.057
26.493	8.900	2.100	2.056
26.544	8.900	2.100	2.054
26.594	8.900	2.100	2.054
26.644	8.900	2.100	2.057
26.694	8.900	2.100	2.055
26.744	8.900	2.100	2.060
26.794	8.900	2.100	2.059
26.844	8.900	2.100	2.058
26.895	8.900	2.100	2.053
26.945	8.900	2.100	2.061
26.994	8.900	2.100	2.059
27.044	8.900	2.100	2.061
27.093	8.900	2.100	2.060
27.143	8.900	2.100	2.059
27.194	8.900	2.100	2.060
27.243	8.900	2.100	2.061
27.293	8.900	2.100	2.060
27.344	8.900	2.100	2.061
27.394	8.900	2.100	2.060
27.443	8.900	2.100	2.060
27.494	8.900	2.100	2.061
27.544	8.900	2.100	2.063
27.593	8.900	2.100	2.058
27.644	8.900	2.100	2.063
27.693	8.900	2.100	2.064
27.743	8.900	2.100	2.061
27.794	8.900	2.100	2.064
27.845	8.900	2.100	2.065
27.895	8.900	2.100	2.063
27.944	8.900	2.100	2.063
27.995	8.900	2.100	2.061
28.044	8.900	2.100	2.062
28.094	8.900	2.100	2.063
28.144	8.900	2.100	2.065
28.193	8.900	2.100	2.063
28.244	8.900	2.100	2.061
28.294	8.900	2.100	2.065
28.343	8.900	2.100	2.063
28.394	8.900	2.100	2.064
28.444	8.900	2.100	2.065
28.493	8.900	2.100	2.067
28.543	8.900	2.100	2.066
28.593	8.900	2.100	2.059
28.643	8.900	2.100	2.066
28.693	8.900	2.100	2.066
28.743	8.900	2.100	2.067
28.793	8.900	2.100	2.065
28.843	8.900	2.100	2.064
28.894	8.900	2.100	2.064
28.944	8.900	2.100	2.065
28.993	8.900	2.100	2.064
29.044	8.900	2.100	2.067
29.094	8.900	2.100	2.067
29.143	8.900	2.100	2.065
29.194	8.900	2.100	2.067
29.244	8.900	2.100	2.070
29.295	8.900	2.100	2.071
29.345	8.900	2.100	2.071
29.395	8.900	2.100	2.049
29.445	8.900	2.100	2.073
29.495	8.900	2.100	2.073
29.545	8.900	2.100	2.074
29.594	8.900	2.100	2.069
29.643	8.900	2.100	2.077
29.694	8.900	2.100	2.079
29.744	8.900	2.100	2.079
29.794	8.900	2.100	2.079
29.845	8.900	2.100	2.079
29.894	8.900	2.100	2.081
29.944	8.900	2.100	2.083
29.995	8.900	2.100	2.084
30.045	8.900	2.100	2.085
30.094	8.900	2.100	2.084
30.145	8.900	2.100	2.084
30.195	8.900	2.100	2.086
30.245	8.900	2.100	2.085
30.294	8.900	2.100	2.086
30.345	8.900	2.100	2.086
30.395	8.900	2.100	2.086
30.444	8.900	2.100	2.087
30.495	8.900	2.100	2.086
30.545	8.900	2.100	2.072
30.595	8.900	2.100	2.081
30.645	8.900	2.100	2.087
30.695	8.900	2.100	2.085
30.744	8.900	2.100	2.085
30.794	8.900	2.100	2.087
30.844	8.900	2.100	2.083
30.894	8.900	2.100	2.086
30.945	8.900	2.100	2.087
30.994	8.900	2.100	2.083
31.044	8.900	2.100	2.085
31.094	8.900	2.100	2.088
31.144	8.900	2.100	2.086
31.194	8.900	2.100	2.088
31.244	8.900	2.100	2.088
31.293	8.900	2.100	2.086
31.343	8.900	2.100	2.088
31.393	8.900	2.100	2.088
31.443	8.900	2.100	2.090
31.493	8.900	2.100	2.088
31.543	8.900	2.100	2.089
31.593	8.900	2.100	2.084
31.643	8.900	2.100	2.090
31.693	8.900	2.100	2.088
31.742	8.900	2.100	2.088
31.793	8.900	2.100	2.088
31.842	8.900	2.100	2.089
31.892	8.900	2.100	2.088
31.943	8.900	2.100	2.090
31.992	8.900	2.100	2.089
32.041	8.900	2.100	2.088
32.091	8.900	2.100	2.089
32.140	8.900	2.100	2.080
32.191	8.900	2.100	2.089
32.241	8.900	2.100	2.090
32.290	8.900	2.100	2.090
32.340	8.900	2.100	2.090
32.389	8.900	2.100	2.091
32.439	8.900	2.100	2.090
32.488	8.900	2.100	2.089
32.537	8.900	2.100	2.090
32.588	8.900	2.100	2.089
32.637	8.900	2.100	2.088
32.687	8.900	2.100	2.090
32.737	8.900	2.100	2.091
32.786	8.900	2.100	2.093
32.836	8.900	2.100	2.090
32.885	8.900	2.100	2.079
32.935	8.900	2.100	2.087
32.985	8.900	2.100	2.080
33.034	8.900	2.100	2.088
33.084	8.900	2.100	2.090
33.134	8.900	2.100	2.087
33.184	8.900	2.100	2.089
33.234	8.900	2.100	2.090
33.284	8.900	2.100	2.091
33.334	8.900	2.100	2.088
33.384	8.900	2.100	2.088
33.434	8.900	2.100	2.092
33.484	8.900	2.100	2.089
33.535	8.900	2.100	2.084
33.585	8.900	2.100	2.092
33.634	8.900	2.100	2.090
33.684	8.900	2.100	2.089
33.735	8.900	2.100	2.090
33.784	8.900	2.100	2.088
33.834	8.900	2.100	2.089
33.884	8.900	2.100	2.090
33.933	8.900	2.100	2.088
33.984	8.900	2.100	2.088
34.034	8.900	2.100	2.090
34.084	8.900	2.100	2.088
34.133	8.900	2.100	2.092
34.183	8.900	2.100	2.090
34.233	8.900	2.100	2.089
34.284	8.900	2.100	2.091
34.333	8.900	2.100	2.090
34.383	8.900	2.100	2.084
34.434	8.900	2.100	2.090
34.484	8.900	2.100	2.091
34.533	8.900	2.100	2.089
34.584	8.900	2.100	2.088
34.634	8.900	2.100	2.091
34.683	8.900	2.100	2.089
34.734	8.900	2.100	2.088
34.784	8.900	2.100	2.091
34.833	8.900	2.100	2.089
34.883	8.900	2.100	2.091
34.933	8.900	2.100	2.091
34.983	8.900	2.100	2.091
35.033	8.900	2.100	2.090
35.083	8.900	2.100	2.090
35.133	8.900	2.100	2.090
35.183	8.900	2.100	2.088
35.234	8.900	2.020	2.091
35.283	8.900	2.020	2.091
35.333	8.900	2.020	2.088
35.384	8.900	2.020	2.091
35.433	8.900	2.020	2.090
35.483	8.900	2.020	2.088
35.534	8.900	2.020	2.091
35.583	8.900	2.020	2.091
35.633	8.900	2.020	2.090
35.684	8.900	2.020	2.089
35.734	8.900	2.020	2.086
35.783	8.900	2.020	2.087
35.834	8.900	2.020	2.087
35.884	8.900	2.020	2.090
35.934	8.900	2.020	2.088
35.984	8.900	2.020	2.089
36.034	8.900	2.020	2.066
36.084	8.900	2.020	2.088
36.133	8.900	2.020	2.089
36.184	8.900	2.020	2.093
36.233	8.900	2.020	2.091
36.283	8.900	2.020	2.091
36.333	8.900	2.020	2.088
36.382	8.900	2.020	2.085
36.433	8.900	2.020	2.091
36.482	8.900	2.020	2.092
36.532	8.900	2.020	2.087
36.583	8.900	2.020	2.090
36.633	8.900	2.020	2.092
36.683	8.900	2.020	2.089
36.733	8.900	2.020	2.091
36.783	8.900	2.020	2.090
36.833	8.900	2.020	2.089
36.883	8.900	2.020	2.090
36.934	8.900	2.020	2.091
36.983	8.900	2.020	2.090
37.033	8.900	2.020	2.089
37.083	8.900	2.020	2.093
37.133	8.900	2.020	2.091
37.183	8.900	2.020	2.088
37.234	8.900	2.020	2.089
37.284	8.900	2.020	2.091
37.333	8.900	2.020	2.090
37.384	8.900	2.020	2.091
37.433	8.900	2.020	2.088
37.483	8.900	2.020	2.080
37.533	8.900	2.020	2.088
37.583	8.900	2.020	2.092
37.633	8.900	2.020	2.090
37.684	8.900	2.020	2.091
37.734	8.900	2.020	2.087
37.783	8.900	2.020	2.089
37.833	8.900	2.020	2.092
37.883	8.900	2.020	2.088
37.933	8.900	2.020	2.090
37.983	8.900	2.020	2.091
38.033	8.900	2.020	2.092
38.083	8.900	2.020	2.089
38.133	8.900	2.020	2.090
38.184	8.900	2.020	2.092
38.233	8.900	2.020	2.091
38.283	8.900	2.020	2.087
38.334	8.900	2.020	2.092
38.384	8.900	2.020	2.088
38.433	8.900	2.020	2.088
38.484	8.900	2.020	2.088
38.534	8.900	2.020	2.092
38.584	8.900	2.020	2.078
38.634	8.900	2.020	2.091
38.684	8.900	2.020	2.092
38.734	8.800	2.020	2.089
38.784	8.800	2.020	2.092
38.833	8.800	2.020	2.092
38.883	8.800	2.020	2.092
38.933	8.700	2.020	2.093
38.983	8.700	2.020	2.091
39.033	8.700	2.020	2.090
39.084	8.600	2.020	2.092
39.133	8.600	2.020	2.091
39.183	8.600	2.020	2.091
39.234	8.600	2.020	2.091
39.284	8.500	2.020	2.093
39.333	8.500	2.020	2.090
39.384	8.500	2.020	2.091
39.434	8.500	2.020	2.090
39.483	8.500	2.020	2.089
39.534	8.500	2.020	2.091
39.584	8.500	2.020	2.089
39.634	8.500	2.020	2.089
39.684	8.500	2.020	2.091
39.735	8.500	2.020	2.090
39.784	8.500	2.020	2.090
39.834	8.500	2.020	2.090
39.885	8.500	2.020	2.092
39.935	8.500	2.020	2.092
39.984	8.500	2.020	2.090
40.035	8.500	2.020	2.091
40.084	8.500	2.020	2.091
40.133	8.500	2.020	2.088
40.184	8.500	2.020	2.088
40.233	8.500	2.020	2.087
40.283	8.400	2.020	2.090
40.334	8.400	2.020	2.091
40.384	8.400	2.020	2.090
40.433	8.300	2.020	2.093
40.483	8.300	2.020	2.090
40.533	8.300	2.020	2.091
40.583	8.300	2.020	2.089
40.634	8.300	2.020	2.090
40.683	8.300	2.020	2.091
40.733	8.300	2.020	2.091
40.783	8.300	2.020	2.089
40.833	8.300	2.020	2.090
40.883	8.300	2.020	2.089
40.934	8.300	2.020	2.091
40.984	8.300	2.020	2.086
41.033	8.300	2.020	2.089
41.084	8.200	2.020	2.091
41.133	8.200	2.020	2.091
41.183	8.200	2.020	2.089
41.234	8.200	2.020	2.092
41.284	8.100	2.020	2.090
41.333	8.100	2.020	2.088
41.384	8.100	2.020	2.090
41.434	8.100	2.020	2.090
41.483	8.100	2.020	2.085
41.533	8.100	2.020	2.084
41.583	8.100	2.020	2.086
41.633	8.100	2.020	2.087
41.683	8.100	2.020	2.082
41.734	8.000	2.020	2.091
41.783	8.000	2.020	2.088
41.833	8.000	2.020	2.090
41.883	7.900	2.020	2.087
41.932	7.900	2.020	2.090
41.983	7.900	2.020	2.089
42.033	7.900	2.020	2.091
42.082	7.900	2.020	2.089
42.133	7.900	2.020	2.088
42.183	7.900	2.020	2.088
42.232	7.900	2.020	2.089
42.283	7.900	2.020	2.080
42.333	7.900	2.020	2.088
42.383	7.900	2.020	2.085
42.433	7.900	2.020	2.084
42.484	7.900	2.020	2.088
42.533	7.900	2.020	2.086
42.583	7.900	2.020	2.083
42.634	7.900	2.020	2.081
42.684	7.800	2.020	2.089
42.733	7.800	2.020	2.086
42.784	7.800	2.020	2.088
42.834	7.800	2.020	2.087
42.883	7.700	2.020	2.086
42.934	7.700	2.020	2.084
42.984	7.700	2.020	2.087
43.033	7.600	2.020	2.084
43.084	7.600	2.020	2.085
43.134	7.600	2.020	2.086
43.184	7.500	2.020	2.081
43.234	7.500	2.020	2.083
43.284	7.500	2.020	2.084
43.333	7.500	2.020	2.081
43.383	7.400	2.020	2.081
43.433	7.400	2.020	2.084
43.483	7.400	2.020	2.078
43.533	7.300	2.020	2.080
43.583	7.300	2.020	2.079
43.633	7.300	2.020	2.076
43.683	7.300	2.020	2.077
43.734	7.300	2.020	2.075
43.783	7.300	2.020	2.073
43.833	7.300	2.020	2.072
43.884	7.300	2.020	2.073
43.933	7.300	2.020	2.070
43.983	7.300	2.020	2.069
44.034	7.300	2.020	2.066
44.084	7.300	2.020	2.064
44.134	7.300	2.020	2.061
44.184	7.300	2.020	2.059
44.234	7.300	2.020	2.056
44.284	7.300	2.020	2.052
44.334	7.300	2.020	2.051
44.383	7.400	2.020	2.048
44.433	7.400	2.020	2.044
44.484	7.400	2.020	2.044
44.533	7.500	2.020	2.038
44.583	7.500	2.020	2.041
44.633	7.500	2.020	2.040
44.682	7.600	2.020	2.038
44.732	7.600	2.020	2.039
44.783	7.600	2.020	2.039
44.832	7.600	2.020	2.036
44.882	7.600	2.020	2.038
44.933	7.600	2.020	2.038
44.982	7.600	2.020	2.041
45.032	7.600	2.020	2.039
45.082	7.600	2.020	2.040
45.131	7.600	2.020	2.036
45.181	7.600	2.020	2.038
45.231	7.600	2.020	2.039
45.281	7.600	2.020	2.040
45.331	7.600	2.020	2.033
45.381	7.600	2.020	2.039
45.431	7.600	2.020	2.031
45.481	7.600	2.020	2.035
45.531	7.600	2.020	2.037
45.581	7.600	2.020	2.038
45.632	7.600	2.020	2.040
45.682	7.600	2.020	2.034
45.731	7.600	2.020	2.026
45.781	7.600	2.020	2.027
45.831	7.600	2.020	2.040
45.880	7.600	2.020	2.037
45.931	7.600	2.020	2.039
45.980	7.600	2.020	2.038
46.030	7.600	2.020	2.039
46.079	7.600	2.020	2.039
46.128	7.600	2.020	2.038
46.179	7.600	2.020	2.039
46.229	7.500	2.020	2.039
46.278	7.500	2.020	2.038
46.329	7.500	2.020	2.038
46.379	7.500	2.020	2.037
46.429	7.500	2.020	2.036
46.479	7.500	2.020	2.035
46.529	7.500	2.020	2.036
46.579	7.500	2.020	2.038
46.629	7.500	2.020	2.037
46.680	7.500	2.020	2.039
46.729	7.500	2.020	2.038
46.779	7.500	2.020	2.038
46.830	7.500	2.020	2.038
46.880	7.500	2.020	2.038
46.929	7.500	2.020	2.035
46.980	7.500	2.020	2.032
47.030	7.400	2.020	2.038
47.080	7.400	2.020	2.038
47.130	7.400	2.020	2.037
47.180	7.400	2.020	2.037
47.229	7.400	2.020	2.036
47.279	7.400	2.020	2.037
47.329	7.400	2.020	2.037
47.379	7.400	2.020	2.037
47.429	7.400	2.020	2.037
47.479	7.400	2.020	2.037
47.529	7.400	2.020	2.035
47.579	7.400	2.020	2.036
47.629	7.400	2.020	2.036
47.679	7.400	2.020	2.036
47.729	7.400	2.020	2.037
47.780	7.400	2.020	2.040
47.829	7.400	2.020	2.035
47.880	7.400	2.020	2.037
47.930	7.400	2.020	2.038
47.979	7.400	2.020	2.034
48.029	7.400	2.020	2.036
48.080	7.400	2.020	2.033
48.129	7.400	2.020	2.036
48.179	7.400	2.020	2.038
48.230	7.400	2.020	2.036
48.280	7.400	2.020	2.036
48.330	7.400	2.020	2.037
48.380	7.400	2.020	2.037
48.430	7.400	2.020	2.037
48.480	7.400	2.020	2.035
48.531	7.400	2.020	2.036
48.581	7.400	2.020	2.036
48.630	7.400	2.020	2.033
48.680	7.400	2.020	2.035
48.731	7.400	2.020	2.037
48.780	7.400	2.020	2.036
48.830	7.400	2.020	2.036
48.880	7.400	2.020	2.036
48.930	7.400	2.020	2.034
48.980	7.400	2.020	2.037
49.031	7.400	2.020	2.035
49.081	7.400	2.020	2.034
49.130	7.400	2.020	2.030
49.181	7.400	2.020	2.034
49.231	7.400	2.020	2.033
49.280	7.400	2.020	2.034
49.331	7.400	2.020	2.034
49.381	7.400	2.020	2.034
49.431	7.400	2.020	2.033
49.481	7.400	2.020	2.033
49.531	7.400	2.020	2.033
49.580	7.400	2.062	2.033
49.631	7.400	2.062	2.034
49.681	7.400	2.063	2.033
49.731	7.400	2.063	2.034
49.781	7.400	2.064	2.031
49.831	7.400	2.064	2.032
49.881	7.400	2.065	2.032
49.931	7.400	2.065	2.032
49.981	7.400	2.065	2.031
50.030	7.400	2.066	2.029
50.080	7.400	2.066	2.032
50.130	7.400	2.067	2.032
50.180	7.400	2.067	2.032
50.230	7.400	2.067	2.030
50.279	7.400	2.068	2.030
50.329	7.400	2.068	2.009
50.379	7.400	2.068	2.033
50.429	7.400	2.068	2.031
50.479	7.400	2.069	2.030
50.529	7.400	2.069	2.031
50.578	7.400	2.069	2.030
50.629	7.400	2.069	2.028
50.679	7.400	2.069	2.031
50.728	7.400	2.070	2.030
50.778	7.400	2.070	2.031
50.829	7.400	2.070	2.030
50.878	7.400	2.070	2.031
50.928	7.400	2.070	2.030
50.978	7.400	2.070	2.031
51.027	7.400	2.070	2.031
51.077	7.400	2.070	2.030
51.126	7.400	2.070	2.028
51.176	7.400	2.070	2.032
51.227	7.400	2.070	2.030
51.277	7.400	2.070	2.030
51.327	7.400	2.070	2.030
51.377	7.400	2.070	2.031
51.427	7.400	2.069	2.031
51.476	7.400	2.069	2.026
51.527	7.400	2.069	2.031
51.576	7.400	2.069	2.029
51.626	7.400	2.069	2.030
51.677	7.400	2.068	2.030
51.726	7.400	2.068	2.029
51.775	7.400	2.068	2.030
51.825	7.400	2.068	2.030
51.874	7.400	2.067	2.030
51.924	7.400	2.067	2.022
51.973	7.400	2.067	2.028
52.024	7.400	2.066	2.029
52.074	7.400	2.066	2.030
52.123	7.400	2.065	2.029
52.173	7.400	2.065	2.028
52.224	7.400	2.065	2.030
52.273	7.400	2.064	2.027
52.323	7.400	2.064	2.028
52.373	7.400	2.063	2.032
52.422	7.400	2.063	2.029
52.472	7.400	2.062	2.021
52.521	7.400	2.062	2.027
52.571	7.400	2.061	2.022
52.621	7.400	2.060	2.013
52.671	7.400	2.060	2.025
52.721	7.400	2.059	2.026
52.771	7.400	2.059	2.022
52.821	7.400	2.058	2.027
52.870	7.400	2.057	2.027
52.920	7.400	2.057	2.024
52.970	7.400	2.056	2.024
53.020	7.400	2.055	2.025
53.070	7.400	2.055	2.023
53.120	7.400	2.054	2.023
53.171	7.400	2.053	2.026
53.221	7.400	2.052	2.027
53.270	7.400	2.052	2.026
53.320	7.400	2.051	2.025
53.370	7.300	2.050	2.026
53.419	7.300	2.049	2.026
53.470	7.300	2.048	2.026
53.520	7.300	2.048	2.027
53.569	7.200	2.047	2.028
53.620	7.200	2.046	2.027
53.670	7.200	2.045	2.026
53.720	7.200	2.044	2.026
53.770	7.200	2.043	2.027
53.821	7.100	2.042	2.027
53.871	7.100	2.041	2.026
53.920	7.100	2.041	2.026
53.971	7.100	2.040	2.026
54.020	7.000	2.039	2.025
54.070	7.000	2.038	2.024
54.121	7.000	2.037	2.023
54.171	7.000	2.036	2.021
54.220	6.900	2.035	2.020
54.271	6.900	2.034	2.020
54.321	6.900	2.033	2.018
54.370	6.800	2.032	2.018
54.421	6.800	2.031	2.017
54.471	6.800	2.030	2.016
54.521	6.800	2.029	2.015
54.571	6.800	2.028	2.014
54.621	6.800	2.027	2.012
54.671	6.800	2.026	2.011
54.721	6.800	2.025	2.010
54.772	6.800	2.024	2.010
54.821	6.800	2.023	2.008
54.871	6.900	2.022	2.006
54.922	6.900	2.021	1.984
54.971	6.900	2.020	2.003
55.021	6.900	2.019	2.004
55.072	7.000	2.018	2.003
55.121	7.000	2.017	2.000
55.170	7.000	2.016	1.998
55.220	7.000	2.015	2.001
55.270	7.100	2.014	1.996
55.320	7.100	2.013	2.002
55.370	7.100	2.012	2.002
55.420	7.200	2.011	2.000
55.470	7.200	2.010	2.001
55.520	7.200	2.009	2.001
55.570	7.200	2.008	2.000
55.620	7.200	2.007	1.995
55.671	7.300	2.006	2.001
55.720	7.300	2.005	2.001
55.770	7.300	2.004	1.994
55.821	7.300	2.003	2.000
55.870	7.300	2.003	2.002
55.920	7.300	2.002	2.002
55.971	7.300	2.001	1.999
56.021	7.300	2.000	2.003
56.071	7.300	1.999	2.001
56.121	7.400	1.998	2.002
56.171	7.400	1.997	2.002
56.221	7.400	1.996	2.001
56.271	7.400	1.995	2.004
56.322	7.400	1.994	2.003
56.372	7.400	1.994	2.004
56.422	7.400	1.993	2.005
56.472	7.400	1.992	2.004
56.522	7.400	1.991	2.004
56.572	7.400	1.990	2.004
56.622	7.400	1.989	2.005
56.672	7.400	1.989	2.004
56.721	7.400	1.988	2.004
56.772	7.400	1.987	1.995
56.822	7.300	1.986	2.005
56.871	7.300	1.986	2.004
56.922	7.300	1.985	2.004
56.972	7.300	1.984	2.003
57.022	7.300	1.984	2.003
57.072	7.300	1.983	2.003
57.123	7.300	1.982	2.004
57.172	7.300	1.982	2.004
57.222	7.300	1.981	2.004
57.273	7.300	1.980	2.005
57.323	7.300	1.980	2.005
57.373	7.300	1.979	2.002
57.423	7.300	1.979	2.002
57.473	7.300	1.978	2.006
57.523	7.300	1.977	2.002
57.574	7.300	1.977	2.002
57.624	7.300	1.976	2.004
57.673	7.300	1.976	2.002
57.723	7.300	1.975	1.996
57.774	7.200	1.975	2.006
57.824	7.200	1.975	2.003
57.874	7.200	1.974	2.003
57.924	7.200	1.974	2.003
57.974	7.200	1.973	2.003
58.023	7.200	1.973	2.004
58.073	7.200	1.973	2.005
58.123	7.200	1.972	2.004
58.173	7.200	1.972	2.003
58.223	7.200	1.972	2.004
58.273	7.200	1.972	2.003
58.323	7.200	1.971	2.005
58.373	7.200	1.971	2.004
58.422	7.200	1.971	2.005
58.472	7.200	1.971	2.004
58.522	7.100	1.971	2.005
58.572	7.100	1.970	2.004
58.622	7.100	1.970	2.003
58.673	7.100	1.970	2.004
58.723	7.100	1.970	2.004
58.773	7.100	1.970	2.001
58.824	7.100	1.970	2.001
58.874	7.100	1.970	2.003
58.923	7.100	1.970	2.001
58.973	7.100	1.970	2.002
59.024	7.100	1.970	2.003
59.073	7.100	1.970	2.003
59.123	7.100	1.970	2.003
59.173	7.100	1.970	2.004
59.223	7.100	1.970	2.002
59.273	7.100	1.971	2.004
59.323	7.100	1.971	2.003
59.373	7.100	1.971	2.001
59.423	7.100	1.971	2.002
59.474	7.100	1.971	2.004
59.523	7.100	1.972	2.003
59.573	7.100	1.972	2.001
59.624	7.100	1.972	2.004
59.673	7.100	1.972	2.002
59.723	7.100	1.973	2.002
59.774	7.100	1.973	2.003
59.823	7.100	1.973	2.003
59.873	7.100	1.974	2.002
59.924	7.100	1.974	2.005
59.973	7.100	1.974	2.003
60.023	7.100	1.975	2.005
60.074	7.100	1.975	2.004
60.123	7.100	1.976	2.002
60.173	7.100	1.976	2.002
60.224	7.100	1.977	2.003
60.273	7.100	1.977	2.003
60.323	7.100	1.978	2.002
60.374	7.100	1.978	2.001
60.423	7.100	1.979	2.003
60.472	7.100	1.980	2.004
60.522	7.100	1.980	2.003
60.571	7.100	1.981	2.003
60.622	7.100	1.981	2.003
60.672	7.100	1.982	2.002
60.721	7.100	1.983	2.004
60.772	7.100	1.983	2.000
60.821	7.100	1.984	2.002
60.870	7.100	1.985	2.003
60.921	7.100	1.985	2.003
60.970	7.100	1.986	2.003
61.020	7.100	1.987	2.002
61.070	7.100	1.988	2.003
61.119	7.100	1.988	2.002
61.169	7.100	1.989	2.002
61.218	7.100	1.990	2.003
61.268	7.100	1.991	2.002
61.318	7.100	1.992	2.003
61.367	7.100	1.992	2.001
61.417	7.200	1.993	2.004
61.467	7.200	1.994	2.003
61.516	7.200	1.995	2.002
61.566	7.200	1.996	2.003
61.616	7.200	1.997	2.003
61.666	7.300	1.998	2.005
61.716	7.300	1.998	2.004
61.766	7.300	1.999	2.004
61.816	7.300	2.000	2.003
61.867	7.300	2.001	2.005
61.916	7.300	2.002	2.004
61.966	7.400	2.003	2.003
62.017	7.400	2.004	2.003
62.067	7.400	2.005	2.008
62.117	7.400	2.006	2.002
62.167	7.400	2.007	2.001
62.218	7.400	2.008	2.003
62.268	7.400	2.009	2.003
62.317	7.400	2.010	2.003
62.367	7.500	2.011	2.004
62.417	7.500	2.012	2.004
62.467	7.500	2.013	2.003
62.518	7.500	2.014	2.005
62.567	7.500	2.015	2.005
62.616	7.600	2.016	2.006
62.667	7.600	2.017	2.007
62.716	7.600	2.018	2.004
62.766	7.600	2.019	1.995
62.815	7.700	2.020	2.001
62.865	7.700	2.021	2.004
62.916	7.700	2.022	2.005
62.966	7.700	2.023	1.994
63.015	7.800	2.024	1.999
63.066	7.800	2.025	2.003
63.116	7.800	2.026	1.992
63.165	7.800	2.027	1.999
63.216	7.900	2.028	1.999
63.266	7.900	2.029	2.006
63.316	7.900	2.030	2.004
63.366	7.900	2.031	2.006
63.416	7.900	2.032	2.008
63.466	7.900	2.033	2.010
63.516	7.900	2.034	2.014
63.567	7.900	2.034	2.011
63.616	7.900	2.035	2.011
63.666	7.900	2.036	2.013
63.717	7.900	2.037	2.007
63.766	7.900	2.038	2.018
63.817	7.900	2.039	2.014
63.867	7.900	2.040	2.016
63.918	7.900	2.041	2.015
63.968	7.900	2.042	2.018
64.017	7.900	2.043	2.018
64.068	7.900	2.044	2.017
64.117	7.900	2.045	2.016
64.167	7.900	2.045	2.016
64.218	7.900	2.046	2.016
64.267	7.900	2.047	2.017
64.317	7.900	2.048	2.018
64.368	7.900	2.049	2.013
64.417	7.900	2.050	2.018
64.467	7.900	2.050	2.016
64.518	7.900	2.051	2.013
64.567	7.900	2.052	2.015
64.617	7.900	2.053	2.015
64.668	7.900	2.054	2.007
64.717	8.000	2.054	2.013
64.767	8.000	2.055	2.015
64.818	8.000	2.056	2.018
64.868	8.000	2.056	2.011
64.917	8.000	2.057	2.015
64.968	8.000	2.058	2.014
65.018	8.000	2.058	2.010
65.067	8.000	2.059	2.012
65.117	8.000	2.060	2.015
65.167	8.000	2.060	2.012
65.217	8.100	2.061	2.006
65.267	8.200	2.061	2.016
65.317	8.400	2.062	2.013
65.367	8.400	2.062	2.008
65.417	8.400	2.063	2.018
65.467	8.400	2.063	2.015
65.517	8.400	2.064	2.015
65.567	8.400	2.064	2.018
65.617	8.400	2.065	2.019
65.666	8.400	2.065	2.021
65.717	8.500	2.066	2.021
65.767	8.500	2.066	2.023
65.816	8.500	2.066	2.026
65.867	8.500	2.067	2.028
65.917	8.500	2.067	2.030
65.967	8.500	2.068	2.031
66.017	8.500	2.068	2.032
66.067	8.500	2.068	2.037
66.116	8.500	2.068	2.041
66.166	8.500	2.069	2.041
66.216	8.400	2.069	2.045
66.266	8.400	2.069	2.048
66.316	8.400	2.069	2.048
66.366	8.400	2.069	2.052
66.416	8.300	2.070	2.051
66.466	8.300	2.070	2.053
66.517	8.300	2.070	2.046
66.567	8.300	2.070	2.049
66.616	8.200	2.070	2.051
66.667	8.200	2.070	2.054
66.716	8.200	2.070	2.052
66.766	8.200	2.070	2.050
66.817	8.200	2.070	2.053
66.867	8.200	2.070	2.052
66.917	8.200	2.070	2.051
66.967	8.200	2.070	2.055
67.017	8.200	2.070	2.051
67.067	8.200	2.070	2.051
67.117	8.200	2.069	2.052
67.168	8.200	2.069	2.052
67.217	8.200	2.069	2.051
67.267	8.200	2.069	2.053
67.317	8.200	2.069	2.052
67.367	8.200	2.069	2.050
67.417	8.200	2.068	2.051
67.468	8.200	2.068	2.053
67.517	8.200	2.068	2.051
67.567	8.200	2.067	2.052
67.618	8.200	2.067	2.053
67.667	8.200	2.067	2.052
67.717	8.200	2.066	2.053
67.766	8.200	2.066	2.053
67.816	8.200	2.066	2.053
67.867	8.200	2.065	2.053
67.917	8.200	2.065	2.052
67.967	8.200	2.064	2.051
68.017	8.100	2.064	2.050
68.067	8.100	2.063	2.052
68.117	8.100	2.063	2.052
68.167	8.100	2.062	2.053
68.217	8.000	2.062	2.053
68.266	8.000	2.061	2.052
68.316	8.000	2.061	2.049
68.367	8.000	2.060	2.053
68.417	7.900	2.059	2.052
68.467	7.900	2.059	2.048
68.518	7.900	2.058	2.051
68.568	7.900	2.057	2.051
68.617	7.900	2.057	2.052
68.667	7.900	2.056	2.040
68.717	7.900	2.055	2.052
68.767	7.900	2.055	2.050
68.818	7.900	2.054	2.052
68.867	7.900	2.053	2.053
68.917	7.900	2.052	2.050
68.967	7.900	2.052	2.053
69.017	7.900	2.051	2.052
69.067	7.900	2.050	2.050
69.117	7.900	2.049	2.052
69.168	7.900	2.049	2.051
69.218	7.900	2.048	2.049
69.267	7.900	2.047	2.052
69.318	7.800	2.046	2.051
69.368	7.800	2.045	2.053
69.418	7.800	2.044	2.051
69.468	7.800	2.043	2.051
69.518	7.700	2.043	2.052
69.568	7.700	2.042	2.050
69.618	7.700	2.041	2.049
69.668	7.700	2.040	2.051
69.718	7.600	2.039	2.050
69.768	7.600	2.038	2.052
69.818	7.600	2.037	2.050
69.867	7.500	2.036	2.051
69.917	7.500	2.035	2.049
69.967	7.500	2.034	2.049
70.017	7.500	2.033	2.047
70.068	7.500	2.032	2.045
70.118	7.500	2.031	2.048
70.167	7.500	2.030	2.045
70.218	7.500	2.029	2.046
70.268	7.500	2.028	2.048
70.317	7.400	2.027	2.044
70.368	7.400	2.026	2.046
70.418	7.400	2.025	2.047
70.467	7.400	2.024	2.041
70.518	7.300	2.023	2.042
70.568	7.300	2.022	2.046
70.618	7.300	2.021	2.044
70.668	7.300	2.020	2.045
70.719	7.300	2.019	2.042
70.768	7.300	2.018	2.044
70.818	7.300	2.017	2.041
70.869	7.300	2.016	2.041
70.918	7.300	2.015	2.040
70.968	7.300	2.014	2.038
71.019	7.200	2.013	2.036
71.069	7.000	2.012	2.035
71.119	6.900	2.011	2.031
71.169	6.700	2.010	2.033
71.219	6.500	2.009	2.029
71.268	6.400	2.008	2.030
71.318	6.300	2.007	2.030
71.368	6.100	2.007	2.029
71.417	6.000	2.006	2.026
71.467	6.000	2.005	2.025
71.517	6.000	2.004	2.019
71.567	6.000	2.003	2.012
71.618	6.000	2.002	2.014
71.668	6.000	2.001	2.008
71.718	5.900	2.000	2.003
71.768	5.900	1.999	2.001
71.819	5.900	1.998	1.995
71.868	5.900	1.997	1.992
71.918	5.900	1.996	1.987
71.969	5.900	1.995	1.988
72.018	5.900	1.995	1.982
72.068	5.900	1.994	1.977
72.119	6.000	1.993	1.966
72.169	6.000	1.992	1.977
72.219	6.000	1.991	1.975
72.269	6.000	1.990	1.975
72.319	6.000	1.990	1.973
72.369	6.000	1.989	1.972
72.419	6.000	1.988	1.972
72.469	6.000	1.987	1.970
72.518	6.000	1.987	1.967
72.569	6.000	1.986	1.972
72.618	6.000	1.985	1.971
72.668	6.200	1.984	1.971
72.719	6.300	1.984	1.971
72.768	6.500	1.983	1.971
72.818	6.600	1.982	1.968
72.869	6.800	1.982	1.970
72.919	7.000	1.981	1.970
72.968	7.100	1.980	1.966
73.019	7.100	1.980	1.970
73.069	7.100	1.979	1.970
73.119	7.100	1.979	1.970
73.169	7.100	1.978	1.971
73.219	7.100	1.978	1.971
73.269	7.100	1.977	1.968
73.318	7.100	1.977	1.970
73.368	7.100	1.976	1.973
73.418	7.100	1.976	1.970
73.468	7.100	1.975	1.973
73.518	7.100	1.975	1.971
73.568	7.100	1.974	1.972
73.618	7.100	1.974	1.972
73.667	7.100	1.974	1.972
73.717	7.100	1.973	1.973
73.767	7.100	1.973	1.973
73.816	7.100	1.973	1.973
73.866	7.100	1.972	1.973
73.917	7.100	1.972	1.973
73.966	7.100	1.972	1.971
74.016	7.100	1.971	1.975
74.067	7.100	1.971	1.974
74.116	7.100	1.971	1.972
74.166	7.100	1.971	1.971
74.217	7.100	1.971	1.973
74.267	7.100	1.970	1.973
74.316	7.100	1.970	1.974
74.366	7.100	1.970	1.974
74.415	7.100	1.970	1.976
74.465	7.100	1.970	1.974
74.515	7.100	1.970	1.972
74.564	7.100	1.970	1.974
74.615	7.100	1.970	1.972
74.665	7.100	1.970	1.973
74.715	7.100	1.970	1.974
74.765	7.100	1.970	1.973
74.814	7.100	1.970	1.974
74.864	7.100	1.970	1.973
74.915	7.100	1.970	1.973
74.965	7.100	1.970	1.974
75.014	7.100	1.971	1.974
75.065	7.100	1.971	1.975
75.114	7.100	1.971	1.973
75.163	7.100	1.971	1.973
75.213	7.200	1.971	1.975
75.262	7.200	1.972	1.974
75.313	7.200	1.972	1.973
75.363	7.200	1.972	1.975
75.413	7.200	1.973	1.974
75.463	7.200	1.973	1.973
75.514	7.200	1.973	1.974
75.564	7.200	1.974	1.974
75.614	7.200	1.974	1.974
75.664	7.200	1.974	1.975
75.714	7.200	1.975	1.974
75.764	7.300	1.975	1.974
75.814	7.300	1.976	1.972
75.864	7.300	1.976	1.975
75.914	7.300	1.977	1.973
75.964	7.400	1.977	1.977
76.013	7.400	1.978	1.976
76.063	7.400	1.978	1.973
76.114	7.400	1.979	1.975
76.164	7.400	1.979	1.976
76.213	7.400	1.980	1.974
76.264	7.400	1.981	1.974
76.314	7.400	1.981	1.976
76.363	7.400	1.982	1.974
76.414	7.400	1.982	1.973
76.464	7.600	1.983	1.976
76.513	7.700	1.984	1.968
76.563	7.800	1.984	1.973
76.613	7.800	1.985	1.963
76.662	7.800	1.986	1.969
76.713	7.900	1.987	1.973
76.762	7.900	1.987	1.967
76.812	7.900	1.988	1.975
76.862	7.900	1.989	1.976
76.912	7.900	1.990	1.975
76.962	7.900	1.990	1.974
77.013	7.900	1.991	1.979
77.062	7.900	1.992	1.980
77.112	7.900	1.993	1.978
77.163	7.900	1.994	1.972
77.213	8.100	1.995	1.984
77.262	8.200	1.996	1.985
77.313	8.200	1.996	1.983
77.363	8.200	1.997	1.991
77.412	8.200	1.998	1.992
77.463	8.300	1.999	1.994
77.513	8.300	2.000	1.990
77.563	8.300	2.001	1.995
77.613	8.300	2.002	1.993
77.664	8.300	2.003	2.002
77.714	8.300	2.004	2.009
77.764	8.300	2.005	2.012
77.814	8.300	2.006	2.005
77.864	8.300	2.007	2.012
77.913	8.300	2.008	2.006
77.964	8.300	2.009	2.007
78.014	8.300	2.010	2.015
78.063	8.200	2.011	2.008
78.114	8.200	2.012	2.004
78.164	8.200	2.013	2.008
78.213	8.200	2.013	2.014
78.263	8.200	2.014	2.014
78.313	8.200	2.015	2.002
78.364	8.200	2.016	2.010
78.414	8.200	2.017	2.009
78.464	8.200	2.018	2.016
78.513	8.200	2.019	2.015
78.563	8.200	2.020	2.016
78.613	8.200	2.021	2.016
78.663	8.200	2.022	2.014
78.713	8.200	2.023	2.017
78.763	8.200	2.024	2.015
78.812	8.200	2.025	2.015
78.863	8.200	2.026	2.016
78.913	8.200	2.027	2.018
78.962	8.100	2.028	2.017
79.012	8.100	2.029	2.016
79.062	8.100	2.030	2.016
79.111	8.100	2.031	2.014
79.162	8.100	2.032	2.019
79.211	8.100	2.033	2.015
79.262	8.100	2.034	2.018
79.312	8.100	2.035	2.018
79.361	8.100	2.036	2.017
79.411	8.100	2.037	2.013
79.461	8.100	2.038	2.017
79.511	8.100	2.039	2.016
79.561	8.100	2.040	2.018
79.612	8.100	2.041	2.016
79.661	8.100	2.042	2.016
79.711	8.100	2.043	2.015
79.762	8.100	2.043	2.017
79.811	8.100	2.044	2.018
79.861	8.200	2.045	2.015
79.912	8.200	2.046	2.017
79.962	8.200	2.047	2.018
80.012	8.200	2.048	2.018
80.062	8.200	2.049	2.012
80.112	8.300	2.049	2.018
80.162	8.300	2.050	2.016
80.212	8.300	2.051	2.016
80.262	8.300	2.052	2.017
80.312	8.300	2.053	2.017
80.362	8.300	2.053	2.018
80.412	8.300	2.054	2.019
80.462	8.300	2.055	2.017
80.512	8.300	2.055	2.018
80.563	8.300	2.056	2.009
80.612	8.400	2.057	2.018
80.662	8.500	2.058	2.018
80.713	8.700	2.058	2.017
80.763	8.800	2.059	2.018
80.812	9.000	2.059	2.018
80.862	9.100	2.060	2.016
80.912	9.300	2.061	2.018
80.962	9.500	2.061	2.014
81.013	9.600	2.062	2.017
81.063	9.800	2.062	2.019
81.113	9.900	2.063	2.019
81.163	10.000	2.063	2.020
81.214	10.000	2.064	2.019
81.263	10.000	2.064	2.022
81.313	10.000	2.065	2.022
81.364	10.000	2.065	2.024
81.414	10.000	2.066	2.026
81.464	10.000	2.066	2.029
81.514	10.000	2.066	2.032
81.565	10.000	2.067	2.034
81.615	10.000	2.067	2.035
81.664	10.000	2.067	2.038
81.715	10.000	2.068	2.041
81.764	10.000	2.068	2.039
81.814	10.000	2.068	2.042
81.864	10.000	2.069	2.046
81.913	10.000	2.069	2.045
81.964	10.000	2.069	2.046
82.014	10.000	2.069	2.047
82.064	10.000	2.069	2.048
82.114	10.000	2.070	2.048
82.165	10.000	2.070	2.047
82.214	10.000	2.070	2.048
82.264	10.000	2.070	2.048
82.315	9.900	2.070	2.048
82.365	9.900	2.070	2.049
82.415	9.900	2.070	2.047
82.465	9.900	2.070	2.046
82.516	9.900	2.070	2.049
82.566	9.900	2.070	2.049
82.616	9.900	2.070	2.049
82.666	9.900	2.070	2.050
82.716	9.900	2.070	2.048
82.766	9.900	2.070	2.049
82.816	9.900	2.070	2.049
82.866	9.900	2.069	2.049
82.916	9.900	2.069	2.050
82.966	9.900	2.069	2.051
83.017	9.900	2.069	2.051
83.066	9.900	2.069	2.048
83.116	9.900	2.068	2.051
83.167	9.900	2.068	2.053
83.217	9.900	2.068	2.051
83.266	9.900	2.067	2.053
83.317	9.900	2.067	2.053
83.366	9.900	2.067	2.055
83.416	9.900	2.066	2.055
83.466	9.900	2.066	2.056
83.516	9.900	2.066	2.056
83.566	9.900	2.065	2.061
83.616	9.900	2.065	2.064
83.666	9.900	2.064	2.065
83.716	9.900	2.064	2.066
83.766	9.900	2.063	2.073
83.816	9.900	2.063	2.074
83.866	9.900	2.062	2.077
83.916	9.900	2.062	2.081
83.966	9.800	2.061	2.084
84.016	9.800	2.061	2.088
84.067	9.800	2.060	2.091
84.117	9.800	2.059	2.093
84.166	9.800	2.059	2.093
84.217	9.800	2.058	2.091
84.267	9.800	2.058	2.093
84.316	9.800	2.057	2.092
84.367	9.800	2.056	2.093
84.417	9.800	2.056	2.093
84.467	9.700	2.055	2.092
84.517	9.500	2.054	2.093
84.567	9.400	2.053	2.094
84.617	9.200	2.053	2.089
84.666	9.100	2.052	2.093
84.717	8.900	2.051	2.094
84.767	8.800	2.050	2.095
84.817	8.600	2.049	2.094
84.867	8.500	2.049	2.095
84.917	8.300	2.048	2.093
84.967	8.200	2.047	2.092
85.018	8.000	2.046	2.094
85.068	7.900	2.045	2.095
85.117	7.700	2.044	2.092
85.168	7.600	2.044	2.094
85.218	7.400	2.043	2.093
85.267	7.200	2.042	2.093
85.317	7.100	2.041	2.093
85.367	7.000	2.040	2.089
85.417	6.800	2.039	2.088
85.467	6.700	2.038	2.078
85.518	6.600	2.037	2.086
85.568	6.600	2.036	2.081
85.617	6.600	2.035	2.077
85.668	6.600	2.034	2.073
85.718	6.600	2.033	2.065
85.768	6.600	2.032	2.054
85.818	6.600	2.031	2.049
85.868	6.600	2.030	2.036
85.917	6.600	2.029	2.025
85.968	6.600	2.028	2.021
86.018	6.600	2.027	2.015
86.068	6.600	2.026	2.009
86.119	6.600	2.025	2.002
86.169	6.600	2.024	1.997
86.219	6.600	2.023	1.994
86.269	6.600	2.022	1.990
86.320	6.600	2.021	1.989
86.369	6.600	2.020	1.985
86.418	6.600	2.020	1.985
86.469	6.600	2.018	1.984
86.518	6.600	2.018	1.979
86.568	6.600	2.017	1.979
86.619	6.600	2.016	1.980
86.668	6.700	2.015	1.979
86.718	6.700	2.014	1.977
86.769	6.700	2.013	1.979
86.819	6.700	2.012	1.979
86.868	6.700	2.011	1.980
86.919	6.700	2.010	1.979
86.969	6.700	2.009	1.980
87.019	6.700	2.008	1.980
87.070	6.700	2.007	1.976
87.120	6.700	2.006	1.982
87.170	6.900	2.005	1.981
87.220	7.000	2.004	1.980
87.271	7.200	2.003	1.980
87.321	7.300	2.002	1.981
87.370	7.500	2.001	1.979
87.420	7.700	2.000	1.977
87.470	7.700	1.999	1.981
87.520	7.700	1.998	1.981
87.571	7.700	1.997	1.980
87.621	7.700	1.996	1.982
87.671	7.700	1.996	1.982
87.721	7.700	1.995	1.982
87.771	7.700	1.994	1.980
87.820	7.700	1.993	1.985
87.870	7.700	1.992	1.988
87.920	7.700	1.991	1.989
87.970	7.700	1.991	1.989
88.020	7.700	1.990	1.988
88.071	7.700	1.989	1.992
88.121	7.700	1.988	1.992
88.171	7.700	1.987	1.992
88.222	7.700	1.987	1.990
88.272	7.600	1.986	1.993
88.321	7.600	1.985	1.993
88.371	7.600	1.984	1.993
88.421	7.600	1.984	1.992
88.470	7.600	1.983	1.993
88.521	7.500	1.982	1.994
88.571	7.500	1.982	1.993
88.621	7.500	1.981	1.992
88.671	7.500	1.980	1.993
88.721	7.500	1.980	1.992
88.770	7.500	1.979	1.993
88.820	7.500	1.979	1.992
88.870	7.500	1.978	1.990
88.919	7.500	1.978	1.992
88.969	7.500	1.977	1.991
89.018	7.400	1.977	1.995
89.069	7.300	1.976	1.992
89.118	7.300	1.976	1.990
89.167	7.300	1.975	1.991
89.218	7.300	1.975	1.992
89.268	7.300	1.974	1.980
89.318	7.200	1.974	1.992
89.369	7.200	1.974	1.990
89.418	7.200	1.973	1.993
89.468	7.200	1.973	1.990
89.519	7.200	1.973	1.991
89.569	7.200	1.972	1.992
89.618	7.200	1.972	1.991
89.669	7.200	1.972	1.992
89.719	7.100	1.971	1.992
89.768	7.100	1.971	1.991
89.818	7.100	1.971	1.991
89.868	7.100	1.971	1.989
89.917	7.000	1.971	1.988
89.967	7.000	1.970	1.989
90.016	7.000	1.970	1.989
90.066	7.000	1.970	1.990
90.116	7.000	1.970	1.990
90.166	7.000	1.970	1.988
90.216	7.000	1.970	1.990
90.266	7.000	1.970	1.990
90.315	7.000	1.970	1.990
90.366	7.000	1.970	1.988
90.415	6.900	1.970	1.989
90.465	6.900	1.970	1.986
90.516	6.900	1.970	1.992
90.565	6.900	1.970	1.989
90.615	6.900	1.970	1.988
90.666	6.900	1.970	1.988
90.716	7.000	1.971	1.989
90.765	7.000	1.971	1.988
90.816	7.000	1.971	1.988
90.866	7.000	1.971	1.989
90.915	7.000	1.971	1.988
90.965	7.000	1.972	1.988
91.015	7.000	1.972	1.989
91.064	7.000	1.972	1.988
91.114	7.000	1.972	1.990
91.163	7.100	1.973	1.986
91.214	7.100	1.973	1.988
91.264	7.100	1.974	1.988
91.314	7.100	1.974	1.987
91.364	7.100	1.974	1.990
91.414	7.200	1.975	1.988
91.464	7.200	1.975	1.989
91.514	7.200	1.976	1.987
91.564	7.200	1.976	1.990
91.613	7.300	1.977	1.989
91.663	7.300	1.977	1.986
91.714	7.300	1.978	1.989
91.764	7.300	1.978	1.988
91.813	7.400	1.979	1.989
91.864	7.400	1.979	1.990
91.913	7.400	1.980	1.989
91.963	7.400	1.980	1.990
92.014	7.500	1.981	1.990
92.064	7.500	1.982	1.991
92.113	7.500	1.982	1.991
92.164	7.600	1.983	1.989
92.214	7.600	1.984	1.993
92.263	7.600	1.984	1.992
92.313	7.600	1.985	1.992
92.363	7.700	1.986	1.992
92.413	7.700	1.987	1.989
92.464	7.700	1.987	1.993
92.513	7.700	1.988	1.994
92.563	7.800	1.989	1.992
92.614	7.800	1.990	1.993
92.663	7.800	1.990	1.996
92.713	7.800	1.991	1.992
92.763	7.900	1.992	1.991
92.813	7.900	1.993	1.995
92.863	7.900	1.994	1.993
92.914	7.900	1.995	1.997
92.964	8.000	1.995	1.992
93.013	8.000	1.996	1.994
93.064	8.000	1.997	1.995
93.114	8.000	1.998	1.994
93.163	8.000	1.999	1.995
93.213	8.000	2.000	1.982
93.263	8.100	2.001	1.992
93.313	8.100	2.002	1.995
93.363	8.100	2.003	1.987
93.413	8.100	2.004	1.995
93.463	8.100	2.005	1.996
93.513	8.100	2.006	1.989
93.563	8.100	2.006	1.997
93.612	8.100	2.007	1.996
93.663	8.100	2.008	1.992
93.713	8.100	2.009	2.000
93.762	8.200	2.010	2.001
93.813	8.400	2.011	2.000
93.863	8.500	2.012	2.003
93.912	8.600	2.013	2.002
93.962	8.800	2.014	2.003
94.012	9.000	2.015	2.003
94.062	9.100	2.016	2.005
94.112	9.300	2.017	2.007
94.162	9.400	2.018	2.008
94.212	9.600	2.019	2.011
94.262	9.700	2.020	2.015
94.312	9.700	2.021	2.016
94.362	9.700	2.022	2.018
94.412	9.700	2.023	2.025
94.461	9.700	2.024	2.031
94.511	9.700	2.025	2.036
94.562	9.700	2.026	2.042
94.612	9.700	2.027	2.050
94.661	9.600	2.028	2.053
94.712	9.600	2.029	2.061
94.762	9.600	2.030	2.067
94.812	9.500	2.031	2.069
94.862	9.500	2.032	2.073
94.913	9.500	2.033	2.077
94.963	9.500	2.034	2.077
95.013	9.500	2.035	2.078
95.063	9.500	2.036	2.081
95.113	9.500	2.037	2.081
95.162	9.500	2.038	2.081
95.212	9.500	2.039	2.082
95.262	9.500	2.040	2.080
95.312	9.300	2.041	2.082
95.362	9.200	2.042	2.082
95.412	9.000	2.042	2.078
95.461	8.900	2.043	2.081
95.512	8.700	2.044	2.084
95.561	8.600	2.045	2.082
95.611	8.400	2.046	2.084
95.662	8.400	2.047	2.083
95.711	8.400	2.048	2.083
95.761	8.400	2.048	2.082
95.812	8.400	2.049	2.082
95.862	8.400	2.050	2.083
95.911	8.400	2.051	2.081
95.962	8.400	2.052	2.082
96.012	8.300	2.052	2.081
96.061	8.300	2.053	2.085
96.112	8.300	2.054	2.083
96.162	8.300	2.055	2.082
96.212	8.300	2.055	2.082
96.262	8.300	2.056	2.081
96.312	8.300	2.057	2.080
96.362	8.300	2.057	2.079
96.412	8.300	2.058	2.076
96.462	8.300	2.059	2.082
96.512	8.300	2.059	2.081
96.563	8.300	2.060	2.081
96.613	8.200	2.061	2.081
96.662	8.200	2.061	2.081
96.712	8.200	2.062	2.082
96.763	8.200	2.062	2.082
96.813	8.200	2.063	2.082
96.863	8.200	2.063	2.080
96.913	8.100	2.064	2.082
96.963	8.100	2.064	2.081
97.013	8.100	2.065	2.079
97.063	8.100	2.065	2.081
97.114	8.100	2.066	2.080
97.164	8.100	2.066	2.081
97.214	8.100	2.066	2.081
97.265	8.100	2.067	2.081
97.315	8.100	2.067	2.081
97.364	8.100	2.067	2.080
97.415	8.100	2.068	2.080
97.465	8.100	2.068	2.081
97.514	8.100	2.068	2.080
97.564	8.000	2.069	2.071
97.614	8.000	2.069	2.079
97.663	8.000	2.069	2.079
97.713	7.900	2.069	2.079
97.762	7.900	2.069	2.081
97.812	7.900	2.069	2.079
97.862	7.900	2.070	2.080
97.912	7.800	2.070	2.079
97.962	7.800	2.070	2.079
98.012	7.800	2.070	2.080
98.062	7.800	2.070	2.077
98.112	7.800	2.070	2.080
98.162	7.800	2.070	2.078
98.212	7.800	2.070	2.078
98.262	7.800	2.070	2.078
98.311	7.800	2.070	2.078
98.361	7.800	2.070	2.076
98.412	7.700	2.070	2.078
98.461	7.700	2.070	2.075
98.510	7.700	2.070	2.078
98.560	7.700	2.069	2.078
98.609	7.600	2.069	2.076
98.660	7.600	2.069	2.075
98.710	7.600	2.069	2.075
98.759	7.600	2.069	2.076
98.810	7.600	2.068	2.075
98.860	7.600	2.068	2.072
98.910	7.600	2.068	2.071
98.960	7.600	2.068	2.072
99.010	7.600	2.067	2.072
99.059	7.600	2.067	2.070
99.109	7.400	2.067	2.071
99.159	7.300	2.066	2.070
99.209	7.100	2.066	2.067
99.259	7.000	2.065	2.063
99.309	6.900	2.065	2.067
99.359	6.900	2.064	2.066
99.409	6.900	2.064	2.064
99.460	6.900	2.064	2.062
99.509	6.800	2.063	2.057
99.559	6.800	2.063	2.051
99.610	6.800	2.062	2.049
99.660	6.800	2.061	2.042
99.709	6.800	2.061	2.036
99.760	6.800	2.060	2.032
99.810	6.800	2.060	2.026
99.859	6.800	2.059	2.023
99.909	6.800	2.058	2.021
99.958	6.800	2.058	2.015
100.008	6.800	2.057	2.012
100.058	6.800	2.056	2.011
100.107	6.900	2.056	2.009
100.157	6.900	2.055	2.006
100.206	6.900	2.054	2.003
100.256	6.900	2.054	2.003
100.306	6.900	2.053	2.001
100.356	6.900	2.052	2.001
100.406	6.900	2.051	2.001
100.457	6.900	2.051	2.002
100.506	6.900	2.050	1.999
100.556	6.900	2.049	2.000
100.607	6.900	2.048	2.001
100.656	7.000	2.047	1.998
100.706	7.000	2.046	1.998
100.756	7.000	2.046	2.002
100.805	7.000	2.045	2.002
100.856	7.000	2.044	2.002
100.906	7.000	2.043	2.002
100.955	7.000	2.042	2.000
101.006	7.000	2.041	1.999
101.056	7.000	2.040	2.003
101.105	7.000	2.039	2.000
101.155	7.000	2.038	1.991
101.204	7.000	2.038	1.999
101.254	7.000	2.037	1.997
101.304	7.000	2.036	1.999
101.353	7.000	2.035	1.998
101.404	7.000	2.034	1.996
101.454	7.000	2.033	1.994
101.504	7.000	2.032	1.999
101.553	7.000	2.031	2.001
101.603	7.000	2.030	1.999
101.653	7.000	2.029	1.998
101.703	7.000	2.028	1.998
101.753	6.900	2.027	1.999
101.803	6.900	2.026	1.998
101.853	6.900	2.025	1.994
101.904	6.900	2.024	2.000
101.954	6.900	2.023	1.999
102.004	6.800	2.022	1.997
102.055	6.800	2.021	1.993
102.105	6.800	2.020	1.999
102.154	6.800	2.019	1.996
102.204	6.800	2.018	1.996
102.254	6.800	2.017	1.999
102.304	6.800	2.016	1.996
102.354	6.800	2.015	1.996
102.404	6.800	2.014	1.996
102.453	6.800	2.013	1.994
102.504	6.800	2.012	1.995
102.553	6.800	2.011	1.997
102.603	6.800	2.010	1.990
102.654	6.700	2.009	1.995
102.704	6.700	2.008	1.996
102.753	6.700	2.007	1.992
102.804	6.700	2.006	1.986
102.854	6.600	2.005	1.995
102.903	6.600	2.004	1.992
102.954	6.600	2.003	1.992
103.004	6.600	2.002	1.995
103.053	6.600	2.001	1.992
103.103	6.500	2.001	1.994
103.153	6.500	2.000	1.993
103.202	6.500	1.999	1.993
103.253	6.500	1.998	1.992
103.303	6.500	1.997	1.992
103.352	6.500	1.996	1.992
103.403	6.500	1.995	1.992
103.453	6.500	1.994	1.992
103.503	6.500	1.993	1.989
103.553	6.400	1.993	1.989
103.604	6.400	1.992	1.989
103.653	6.400	1.991	1.987
103.703	6.400	1.990	1.991
103.754	6.300	1.989	1.988
103.803	6.300	1.989	1.986
103.853	6.300	1.988	1.987
103.903	6.300	1.987	1.991
103.953	6.300	1.986	1.985
104.003	6.300	1.986	1.982
104.054	6.300	1.985	1.985
104.103	6.300	1.984	1.982
104.153	6.300	1.983	1.979
104.204	6.300	1.983	1.981
104.254	6.300	1.982	1.980
104.303	6.300	1.981	1.977
104.354	6.300	1.981	1.980
104.403	6.300	1.980	1.979
104.453	6.300	1.980	1.978
104.504	6.300	1.979	1.979
104.554	6.400	1.978	1.978
104.603	6.400	1.978	1.976
104.654	6.400	1.977	1.975
104.704	6.400	1.977	1.978
104.753	6.400	1.976	1.975
104.804	6.400	1.976	1.974
104.854	6.400	1.975	1.977
104.904	6.400	1.975	1.975
104.954	6.400	1.975	1.975
105.004	6.400	1.974	1.975
105.054	6.500	1.974	1.976
105.103	6.500	1.973	1.976
105.153	6.500	1.973	1.969
105.202	6.500	1.973	1.975
105.252	6.500	1.972	1.975
105.301	6.500	1.972	1.976
105.351	6.500	1.972	1.973
105.401	6.500	1.972	1.973
105.450	6.500	1.971	1.974
105.500	6.500	1.971	1.974
105.549	6.500	1.971	1.974
105.599	6.500	1.971	1.974
105.649	6.500	1.971	1.973
105.698	6.500	1.970	1.977
105.749	6.500	1.970	1.977
105.798	6.500	1.970	1.976
105.847	6.500	1.970	1.976
105.897	6.500	1.970	1.978
105.946	6.500	1.970	1.977
105.996	6.500	1.970	1.978
106.046	6.500	1.970	1.974
106.096	6.500	1.970	1.978
106.146	6.500	1.970	1.976
106.195	6.500	1.970	1.977
106.245	6.500	1.970	1.978
106.294	6.500	1.970	1.979
106.344	6.500	1.970	1.977
106.395	6.500	1.971	1.978
106.444	6.500	1.971	1.979
106.494	6.500	1.971	1.976
106.544	6.500	1.971	1.972
106.593	6.500	1.971	1.972
106.643	6.500	1.972	1.974
106.694	6.500	1.972	1.976
106.744	6.500	1.972	1.973
106.793	6.500	1.972	1.974
106.844	6.500	1.973	1.976
106.894	6.500	1.973	1.969
106.943	6.500	1.973	1.972
106.994	6.500	1.974	1.973
107.044	6.500	1.974	1.975
107.094	6.600	1.974	1.963
107.144	6.600	1.975	1.975
107.193	6.600	1.975	1.970
107.243	6.600	1.976	1.966
107.294	6.700	1.976	1.977
107.343	6.700	1.977	1.975
107.393	6.700	1.977	1.973
107.444	6.700	1.978	1.966
107.494	6.800	1.978	1.976
107.543	6.800	1.979	1.975
107.594	6.800	1.979	1.959
107.644	6.900	1.980	1.962
107.694	6.900	1.981	1.964
107.745	6.900	1.981	1.973
107.795	6.900	1.982	1.976
107.845	7.000	1.983	1.978
107.895	7.000	1.983	1.976
107.945	7.000	1.984	1.974
107.995	7.000	1.985	1.975
108.045	7.100	1.985	1.977
108.095	7.100	1.986	1.974
108.145	7.100	1.987	1.974
108.194	7.100	1.988	1.966
108.245	7.200	1.988	1.966
108.295	7.200	1.989	1.974
108.345	7.200	1.990	1.974
108.395	7.200	1.991	1.977
108.446	7.200	1.992	1.975
108.495	7.200	1.992	1.972
108.545	7.200	1.993	1.969
108.595	7.300	1.994	1.960
108.645	7.300	1.995	1.974
108.695	7.300	1.996	1.977
108.746	7.300	1.997	1.967
108.795	7.400	1.998	1.977
108.844	7.400	1.998	1.978
108.894	7.400	1.999	1.980
108.943	7.400	2.000	1.977
108.994	7.500	2.001	1.980
109.043	7.500	2.002	1.980
109.093	7.500	2.003	1.978
109.144	7.500	2.004	1.982
109.194	7.600	2.005	1.980
109.244	7.600	2.006	1.981
109.294	7.600	2.007	1.982
109.345	7.600	2.008	1.982
109.395	7.600	2.009	1.983
109.444	7.600	2.010	1.982
109.495	7.600	2.011	1.983
109.545	7.600	2.012	1.983
109.595	7.600	2.013	1.981
109.645	7.600	2.014	1.984
109.695	7.700	2.015	1.983
109.745	7.700	2.016	1.982
109.795	7.700	2.017	1.980
109.846	7.700	2.018	1.984
109.895	7.700	2.019	1.982
109.945	7.700	2.020	1.980
109.996	7.700	2.021	1.984
110.045	7.700	2.022	1.983
110.095	7.700	2.023	1.983
110.146	7.700	2.024	1.983
110.196	7.700	2.025	1.982
110.246	7.700	2.026	1.983
110.296	7.700	2.027	1.985
110.346	7.700	2.028	1.983
110.396	7.700	2.029	1.982
110.446	7.700	2.030	1.985
110.496	7.700	2.031	1.984
110.546	7.700	2.032	1.983
110.596	7.800	2.033	1.991
110.646	7.800	2.034	1.984
110.696	7.800	2.035	1.986
110.746	7.800	2.036	1.984
110.797	7.800	2.037	1.976
110.847	7.800	2.037	1.986
110.896	7.900	2.038	1.985
110.947	7.900	2.039	1.987
110.996	7.900	2.040	1.987
111.046	7.900	2.041	1.987
111.097	7.900	2.042	1.987
111.147	8.000	2.043	1.985
111.197	8.000	2.044	1.978
111.247	8.000	2.045	1.989
111.297	8.000	2.046	1.987
111.347	8.000	2.046	1.986
111.397	8.100	2.047	1.991
111.447	8.100	2.048	1.993
111.497	8.100	2.049	1.993
111.547	8.100	2.050	1.995
111.597	8.100	2.051	1.999
111.647	8.200	2.051	1.999
111.697	8.200	2.052	1.998
111.748	8.200	2.053	1.995
111.798	8.200	2.054	2.006
111.847	8.200	2.054	2.009
111.898	8.200	2.055	2.009
111.948	8.200	2.056	2.013
111.997	8.200	2.056	2.016
112.048	8.200	2.057	2.016
112.098	8.200	2.058	2.013
112.148	8.200	2.058	2.009
112.198	8.200	2.059	2.018
112.248	8.200	2.060	2.019
112.297	8.200	2.060	2.017
112.348	8.200	2.061	2.019
112.398	8.200	2.061	2.019
112.447	8.200	2.062	2.016
112.498	8.200	2.063	2.019
112.548	8.200	2.063	2.020
112.597	8.200	2.064	2.018
112.648	8.200	2.064	2.020
112.697	8.200	2.064	2.020
112.747	8.200	2.065	2.019
112.798	8.200	2.065	2.020
112.847	8.200	2.066	2.020
112.896	8.200	2.066	2.016
112.947	8.200	2.067	2.022
112.997	8.200	2.067	2.021
113.046	8.200	2.067	2.023
113.096	8.200	2.068	2.022
113.145	8.200	2.068	2.023
113.195	8.200	2.068	2.022
113.245	8.200	2.068	2.022
113.294	8.200	2.069	2.018
113.344	8.200	2.069	2.022
113.393	8.200	2.069	2.020
113.443	8.200	2.069	2.021
113.493	8.200	2.069	2.006
113.542	8.300	2.070	2.020
113.593	8.300	2.070	2.010
113.643	8.300	2.070	2.022
113.693	8.400	2.070	2.019
113.742	8.400	2.070	2.022
113.793	8.400	2.070	2.022
113.843	8.400	2.070	2.019
113.893	8.500	2.070	2.021
113.943	8.500	2.070	2.022
113.992	8.500	2.070	2.021
114.043	8.500	2.070	2.021
114.092	8.600	2.070	2.021
114.141	8.600	2.070	2.021
114.192	8.600	2.070	2.022
114.241	8.600	2.069	2.020
114.290	8.700	2.069	2.023
114.341	8.700	2.069	2.024
114.390	8.700	2.069	2.024
114.440	8.700	2.069	2.026
114.490	8.700	2.069	2.029
114.539	8.800	2.068	2.027
114.590	8.800	2.068	2.030
114.640	8.800	2.068	2.033
114.690	8.800	2.067	2.029
114.740	8.800	2.067	2.038
114.790	8.900	2.067	2.040
114.840	8.900	2.066	2.040
114.889	8.900	2.066	2.042
114.939	8.900	2.066	2.042
114.988	8.900	2.065	2.044
115.038	8.900	2.065	2.046
115.087	8.800	2.064	2.046
115.137	8.800	2.064	2.047
115.187	8.800	2.063	2.048
115.237	8.800	2.063	2.048
115.288	8.700	2.062	2.051
115.338	8.700	2.062	2.052
115.387	8.700	2.061	2.052
115.438	8.700	2.061	2.054
115.488	8.600	2.060	2.051
115.537	8.600	2.059	2.052
115.588	8.600	2.059	2.053
115.638	8.600	2.058	2.056
115.687	8.600	2.058	2.053
115.738	8.500	2.057	2.055
115.788	8.500	2.056	2.053
115.838	8.500	2.055	2.053
115.887	8.500	2.055	2.054
115.938	8.500	2.054	2.055
115.987	8.400	2.053	2.052
116.037	8.400	2.053	2.054
116.088	8.400	2.052	2.055
116.137	8.300	2.051	2.053
116.187	8.300	2.050	2.052
116.237	8.300	2.049	2.054
116.287	8.300	2.049	2.054
116.337	8.300	2.048	2.053
116.388	8.300	2.047	2.054
116.438	8.200	2.046	2.053
116.487	8.200	2.045	2.053
116.538	8.200	2.044	2.056
116.588	8.100	2.043	2.055
116.638	8.100	2.043	2.053
116.688	8.100	2.042	2.056
116.738	8.100	2.041	2.053
116.788	8.100	2.040	2.053
116.838	8.000	2.039	2.055
116.888	8.000	2.038	2.053
116.938	8.000	2.037	2.055
116.988	7.900	2.036	2.052
117.038	7.900	2.035	2.054
117.088	7.900	2.034	2.052
117.138	7.800	2.033	2.053
117.189	7.800	2.032	2.054
117.238	7.800	2.031	2.052
117.288	7.800	2.030	2.054
117.339	7.700	2.029	2.053
117.389	7.700	2.028	2.053
117.438	7.700	2.027	2.053
117.489	7.700	2.026	2.048
117.539	7.600	2.025	2.052
117.589	7.600	2.024	2.049
117.639	7.600	2.023	2.052
117.690	7.500	2.022	2.053
117.740	7.500	2.021	2.051
117.790	7.500	2.020	2.048
117.841	7.500	2.019	2.049
117.890	7.400	2.018	2.049
117.940	7.400	2.017	2.044
117.991	7.400	2.016	2.046
118.041	7.300	2.015	2.047
118.090	7.300	2.014	2.043
118.141	7.300	2.013	2.043
118.191	7.300	2.012	2.039
118.240	7.200	2.011	2.041
118.290	7.200	2.010	2.038
118.341	7.200	2.009	2.035
118.391	7.200	2.008	2.035
118.441	7.200	2.008	2.032
118.492	7.200	2.007	2.031
118.541	7.200	2.006	2.032
118.591	7.200	2.005	2.001
118.642	7.200	2.004	2.028
118.692	7.200	2.003	2.005
118.741	7.200	2.002	2.026
118.792	7.200	2.001	2.027
118.842	7.200	2.000	2.028
118.891	7.200	1.999	2.027
118.941	7.200	1.998	2.027
118.992	7.300	1.997	2.026
119.042	7.300	1.996	2.026
119.091	7.300	1.995	2.027
119.142	7.300	1.995	2.027
119.191	7.300	1.994	2.029
119.241	7.400	1.993	2.029
119.291	7.400	1.992	2.028
119.341	7.400	1.991	2.026
119.391	7.400	1.990	2.029
119.441	7.400	1.990	2.027
119.491	7.400	1.989	2.030
119.540	7.400	1.988	2.025
119.590	7.400	1.987	2.027
119.640	7.400	1.987	2.027
119.690	7.400	1.986	2.022
119.740	7.300	1.985	2.018
119.789	7.300	1.984	2.021
119.840	7.300	1.984	2.026
119.889	7.300	1.983	2.023
119.939	7.200	1.982	2.018
119.990	7.200	1.982	2.026
120.039	7.200	1.981	2.025
120.089	7.200	1.980	2.026
120.139	7.200	1.980	2.027
120.189	7.100	1.979	2.022
120.239	7.100	1.979	2.024
120.289	7.100	1.978	2.023
120.338	7.000	1.978	2.023
120.388	7.000	1.977	2.024
120.439	7.000	1.977	2.024
120.489	7.000	1.976	2.022
120.539	7.000	1.976	2.020
120.589	7.000	1.975	2.021
120.639	6.900	1.975	2.019
120.689	6.900	1.974	2.019
120.740	6.900	1.974	2.018
120.790	6.800	1.974	2.016
120.840	6.800	1.973	2.015
120.890	6.800	1.973	2.009
120.941	6.800	1.973	2.004
120.991	6.800	1.972	2.009
121.041	6.800	1.972	2.010
121.091	6.800	1.972	2.003
121.141	6.800	1.971	2.012
121.190	6.800	1.971	2.008
121.241	6.800	1.971	2.005
121.291	6.800	1.971	1.996
121.341	6.800	1.971	1.998
121.391	6.900	1.970	2.000
121.442	6.900	1.970	1.998
121.491	6.900	1.970	1.995
121.541	6.900	1.970	1.998
121.592	6.900	1.970	1.991
121.642	6.900	1.970	1.999
121.692	6.900	1.970	1.996
121.742	6.900	1.970	1.994
121.792	6.900	1.970	1.995
121.842	6.900	1.970	1.990
121.892	6.900	1.970	1.990
121.942	6.900	1.970	1.994
121.992	6.900	1.970	1.996
122.042	6.900	1.970	1.992
122.092	6.900	1.971	1.993
122.142	6.900	1.971	1.994
122.192	6.900	1.971	1.996
122.243	6.900	1.971	2.002
122.293	6.900	1.971	2.002
122.343	6.900	1.971	2.001
122.393	6.900	1.972	2.001
122.444	6.900	1.972	2.001
122.493	6.900	1.972	2.000
122.543	6.900	1.973	1.998
122.594	6.900	1.973	1.995
122.644	6.900	1.973	2.002
122.694	6.900	1.974	2.002
122.744	6.900	1.974	1.997
122.793	6.900	1.974	1.999
122.843	6.800	1.975	1.999
122.894	6.800	1.975	1.993
122.943	6.800	1.976	1.996
122.993	6.800	1.976	1.999
123.044	6.700	1.977	1.992
123.093	6.700	1.977	1.996
123.143	6.700	1.978	1.997
123.194	6.700	1.978	2.000
123.244	6.700	1.979	1.990
123.293	6.700	1.979	1.995
123.344	6.700	1.980	1.997
123.394	6.700	1.981	1.989
123.443	6.700	1.981	1.993
123.494	6.700	1.982	1.995
123.544	6.700	1.983	1.993
123.593	6.700	1.983	1.994
123.644	6.700	1.984	1.991
123.694	6.700	1.985	1.994
123.744	6.700	1.985	1.994
123.794	6.700	1.986	2.002
123.845	6.800	1.987	2.000
123.895	6.800	1.988	1.996
123.944	6.800	1.988	1.989
123.994	6.900	1.989	1.998
124.043	6.900	1.990	1.996
124.093	6.900	1.991	1.998
124.143	6.900	1.991	1.998
124.192	6.900	1.992	1.998
124.243	6.900	1.993	1.997
124.293	6.900	1.994	2.000
124.342	7.000	1.995	1.998
124.393	7.000	1.996	1.992
124.443	7.000	1.997	1.999
124.492	7.000	1.997	1.998
124.542	7.100	1.998	1.998
124.592	7.100	1.999	1.971
124.642	7.100	2.000	1.998
124.692	7.100	2.001	1.998
124.742	7.200	2.002	1.999
124.792	7.200	2.003	1.999
124.842	7.200	2.004	1.999
124.892	7.200	2.005	2.000
124.942	7.300	2.006	1.997
124.992	7.300	2.007	1.999
125.042	7.300	2.008	1.998
125.092	7.400	2.009	1.997
125.143	7.400	2.010	1.996
125.193	7.400	2.011	1.999
125.243	7.400	2.012	1.999
125.293	7.500	2.013	1.997
125.344	7.500	2.014	1.997
125.394	7.500	2.015	1.999
125.443	7.500	2.016	1.998
125.494	7.600	2.017	1.998
125.544	7.600	2.018	1.998
125.594	7.600	2.019	1.995
125.644	7.700	2.020	1.999
125.694	7.700	2.021	2.000
125.743	7.700	2.022	1.999
125.793	7.800	2.023	2.001
125.843	7.800	2.024	2.000
125.892	7.800	2.025	2.001
125.943	7.800	2.026	2.003
125.993	7.800	2.027	2.002
126.042	7.800	2.028	1.999
126.093	7.800	2.029	2.002
126.142	7.800	2.030	2.003
126.192	7.800	2.030	1.998
126.243	7.800	2.031	2.002
126.293	7.900	2.032	2.003
126.342	8.000	2.033	2.005
126.393	8.200	2.034	2.006
126.443	8.300	2.035	2.006
126.493	8.500	2.036	2.005
126.543	8.600	2.037	2.007
126.593	8.800	2.038	2.004
126.643	8.900	2.039	2.011
126.693	9.100	2.040	2.013
126.743	9.200	2.041	2.014
126.793	9.400	2.042	2.016
126.843	9.500	2.043	2.015
126.894	9.700	2.044	2.021
126.943	9.900	2.044	2.020
126.992	9.900	2.045	2.026
127.043	9.900	2.046	2.029
127.093	9.900	2.047	2.034
127.143	9.900	2.048	2.038
127.194	9.900	2.049	2.042
127.244	9.900	2.050	2.047
127.294	9.900	2.050	2.050
127.344	9.900	2.051	2.051
127.394	9.900	2.052	2.053
127.444	9.800	2.053	2.051
127.493	9.800	2.053	2.052
127.544	9.800	2.054	2.055
127.594	9.800	2.055	2.049
127.644	9.800	2.056	2.052
127.694	9.800	2.056	2.053
127.743	9.800	2.057	2.052
127.793	9.800	2.058	2.054
127.844	9.800	2.058	2.054
127.894	9.800	2.059	2.054
127.944	9.700	2.060	2.054
127.995	9.500	2.060	2.049
128.044	9.400	2.061	2.055
128.094	9.200	2.061	2.058
128.145	9.100	2.062	2.055
128.195	8.900	2.062	2.055
128.245	8.900	2.063	2.056
128.294	8.900	2.063	2.058
128.345	8.900	2.064	2.057
128.395	8.900	2.064	2.056
128.444	8.900	2.065	2.057
128.495	8.900	2.065	2.057
128.544	8.800	2.066	2.054
128.594	8.800	2.066	2.049
128.645	8.800	2.066	2.056
128.695	8.800	2.067	2.055
128.745	8.800	2.067	2.056
128.795	8.800	2.067	2.057
128.845	8.800	2.068	2.058
128.895	8.800	2.068	2.056
128.945	8.800	2.068	2.057
128.995	8.800	2.069	2.057
129.045	8.800	2.069	2.058
129.095	8.800	2.069	2.056
129.145	8.800	2.069	2.056
129.195	8.800	2.069	2.055
129.245	8.800	2.070	2.056
129.295	8.800	2.070	2.057
129.345	8.800	2.070	2.056
129.395	8.800	2.070	2.044
129.446	8.800	2.070	2.058
129.495	8.800	2.070	2.055
129.545	8.800	2.070	2.055
129.596	8.800	2.070	2.061
129.646	8.800	2.070	2.057
129.696	8.800	2.070	2.057
129.746	8.800	2.070	2.059
129.796	8.800	2.070	2.057
129.846	8.800	2.070	2.057
129.896	8.800	2.070	2.057
129.946	8.800	2.069	2.058
129.996	8.800	2.069	2.056
130.047	8.800	2.069	2.052
130.097	8.800	2.069	2.058
130.146	8.800	2.069	2.056
130.196	8.800	2.069	2.055
130.248	8.800	2.068	2.056
130.298	8.800	2.068	2.058
130.347	8.800	2.068	2.054
130.398	8.800	2.067	2.057
130.448	8.800	2.067	2.057
130.497	8.800	2.067	2.055
130.548	8.800	2.066	2.057
130.598	8.800	2.066	2.059
130.648	8.800	2.066	2.057
130.697	8.800	2.065	2.057
130.747	8.800	2.065	2.057
130.796	8.800	2.064	2.058
130.846	8.700	2.064	2.058
130.896	8.700	2.063	2.056
130.946	8.700	2.063	2.058
130.997	8.700	2.062	2.059
131.047	8.600	2.062	2.057
131.097	8.600	2.061	2.056
131.147	8.600	2.061	2.058
131.198	8.600	2.060	2.056
131.248	8.600	2.059	2.056
131.297	8.600	2.059	2.056
131.348	8.600	2.058	2.056
131.398	8.600	2.057	2.057
131.447	8.600	2.057	2.055
131.498	8.600	2.056	2.056
131.548	8.500	2.055	2.056
131.598	8.300	2.055	2.055
131.648	8.200	2.054	2.058
131.698	8.000	2.053	2.058
131.748	7.900	2.053	2.055
131.799	7.700	2.052	2.056
131.849	7.600	2.051	2.057
131.898	7.400	2.050	2.055
131.949	7.300	2.049	2.058
131.999	7.100	2.049	2.057
132.048	7.000	2.048	2.054
132.098	6.800	2.047	2.052
132.149	6.700	2.046	2.051
132.199	6.500	2.045	2.047
132.248	6.500	2.044	2.041
132.299	6.500	2.043	2.040
132.349	6.500	2.043	2.033
132.399	6.500	2.042	2.027
132.449	6.500	2.041	2.021
132.500	6.500	2.040	2.015
132.550	6.500	2.039	2.010
132.600	6.500	2.038	2.003
132.651	6.500	2.037	2.003
132.700	6.600	2.036	1.998
132.749	6.600	2.035	1.992
132.799	6.600	2.034	1.993
132.849	6.600	2.033	1.988
132.900	6.600	2.032	1.987
132.950	6.600	2.031	1.986
132.999	6.600	2.030	1.983
133.049	6.600	2.029	1.985
133.100	6.600	2.028	1.982
133.150	6.600	2.027	1.982
133.199	6.600	2.026	1.982
133.249	6.800	2.025	1.980
133.299	6.900	2.024	1.976
133.348	6.900	2.023	1.977
133.399	6.900	2.022	1.981
133.448	7.000	2.021	1.979
133.498	7.000	2.020	1.981
133.548	7.000	2.019	1.979
133.598	7.000	2.018	1.977
133.648	7.000	2.017	1.977
133.698	7.000	2.016	1.975
133.747	7.100	2.015	1.977
133.797	7.100	2.014	1.978
133.846	7.100	2.013	1.980
133.896	7.100	2.012	1.981
133.945	7.100	2.011	1.980
133.995	7.100	2.011	1.981
134.046	7.100	2.010	1.981
134.096	7.100	2.009	1.981
134.145	7.100	2.008	1.980
134.196	7.100	2.007	1.982
134.245	7.100	2.006	1.977
134.294	7.100	2.005	1.980
134.345	7.100	2.004	1.981
134.395	7.100	2.003	1.982
134.445	7.100	2.002	1.981
134.495	7.100	2.001	1.981
134.546	7.100	2.000	1.982
134.596	7.100	1.999	1.984
134.646	7.100	1.998	1.981
134.697	7.100	1.997	1.982
134.746	7.100	1.996	1.982
134.796	7.100	1.996	1.982
134.846	7.100	1.995	1.982
134.895	7.100	1.994	1.982
134.945	7.100	1.993	1.982
134.995	7.100	1.992	1.981
135.044	7.100	1.991	1.979
135.095	7.100	1.991	1.982
135.144	7.100	1.990	1.981
135.193	7.100	1.989	1.980
135.243	7.100	1.988	1.980
135.292	7.100	1.987	1.972
135.343	7.100	1.987	1.974
135.392	7.100	1.986	1.981
135.442	7.100	1.985	1.978
135.493	7.100	1.984	1.982
135.543	7.100	1.984	1.979
135.592	7.100	1.983	1.973
135.642	7.100	1.982	1.981
135.692	7.100	1.982	1.982
135.741	7.100	1.981	1.983
135.791	7.100	1.981	1.980
135.840	7.100	1.980	1.975
135.890	7.100	1.979	1.977
135.940	7.100	1.979	1.973
135.989	7.100	1.978	1.980
136.039	7.100	1.978	1.976
136.089	7.100	1.977	1.973
136.139	7.100	1.977	1.969
136.190	7.100	1.976	1.981
136.239	7.100	1.976	1.978
