Time (s)	Motor Command (V)	Desired Position (V)	Actual Position (V)
0.000	7.300	2.000	2.000
0.020	7.300	2.025	2.000
0.040	7.300	2.050	2.000
0.060	7.300	2.075	2.000
0.080	7.300	2.100	2.000
0.100	7.300	2.126	2.000
0.120	7.300	2.151	2.000
0.140	7.300	2.176	2.000
0.160	7.300	2.201	2.000
0.180	7.300	2.226	2.000
0.200	7.300	2.251	2.000
0.220	7.300	2.276	2.000
0.240	7.300	2.300	2.000
0.260	7.300	2.325	2.000
0.280	7.300	2.350	2.000
0.300	7.300	2.375	2.000
0.320	7.300	2.399	2.000
0.340	7.300	2.424	2.000
0.360	7.300	2.449	2.000
0.380	7.300	2.473	2.000
0.400	7.300	2.497	2.000
0.420	7.300	2.522	2.000
0.440	7.300	2.546	2.000
0.460	7.300	2.570	2.000
0.480	7.300	2.594	2.000
0.500	7.300	2.618	2.000
0.520	7.300	2.642	2.000
0.540	7.300	2.666	2.000
0.560	7.300	2.689	2.000
0.580	7.300	2.713	2.000
0.600	7.300	2.736	2.000
0.620	7.300	2.760	2.000
0.640	7.300	2.783	2.000
0.660	7.300	2.806	2.000
0.680	7.300	2.829	2.000
0.700	7.300	2.852	2.000
0.720	7.300	2.874	2.000
0.740	7.300	2.897	2.000
0.760	7.300	2.919	2.000
0.780	7.300	2.941	2.000
0.800	7.300	2.964	2.000
0.820	7.300	2.985	2.000
0.840	7.300	3.007	2.000
0.860	7.300	3.029	2.000
0.880	7.300	3.050	2.000
0.900	7.300	3.072	2.000
0.920	7.300	3.093	2.000
0.940	7.300	3.114	2.000
0.960	7.300	3.135	2.000
0.980	7.300	3.155	2.000
1.000	7.300	3.176	2.000
1.020	7.201	3.196	2.000
1.040	7.201	3.216	2.000
1.060	7.201	3.236	2.000
1.080	7.201	3.255	2.000
1.100	7.201	3.275	2.000
1.120	7.201	3.294	2.000
1.140	7.201	3.313	2.000
1.160	7.201	3.332	2.000
1.180	7.201	3.351	2.000
1.200	7.320	3.369	2.000
1.220	7.320	3.387	2.000
1.240	7.559	3.405	2.000
1.260	7.559	3.423	2.000
1.280	7.559	3.441	2.000
1.300	7.559	3.458	2.000
1.320	7.559	3.475	2.000
1.340	7.799	3.492	2.000
1.360	7.799	3.509	1.999
1.380	7.920	3.525	1.998
1.400	8.042	3.541	1.997
1.420	8.044	3.557	1.995
1.440	8.046	3.573	1.994
1.460	8.168	3.588	1.992
1.480	8.171	3.603	1.990
1.500	8.174	3.618	1.988
1.520	8.236	3.633	1.985
1.540	8.238	3.647	1.984
1.560	8.239	3.661	1.983
1.580	8.238	3.675	1.984
1.600	8.235	3.689	1.986
1.620	8.231	3.702	1.989
1.640	8.226	3.715	1.993
1.660	8.220	3.728	1.998
1.680	8.272	3.740	2.004
1.700	8.262	3.753	2.012
1.720	8.249	3.765	2.021
1.740	8.234	3.776	2.033
1.760	8.218	3.788	2.046
1.780	8.199	3.799	2.060
1.800	8.238	3.810	2.075
1.820	8.216	3.820	2.092
1.840	8.194	3.830	2.110
1.860	8.169	3.840	2.128
1.880	8.144	3.850	2.148
1.900	8.118	3.860	2.168
1.920	8.092	3.869	2.188
1.940	8.065	3.877	2.209
1.960	8.213	3.886	2.230
1.980	8.185	3.894	2.251
2.000	8.274	3.902	2.272
2.020	8.245	3.910	2.293
2.040	8.332	3.917	2.315
2.060	8.418	3.924	2.336
2.080	8.504	3.931	2.358
2.100	8.532	3.937	2.379
2.120	8.617	3.943	2.401
2.140	8.588	3.949	2.422
2.160	8.615	3.955	2.443
2.180	8.586	3.960	2.464
2.200	8.558	3.965	2.485
2.220	8.586	3.969	2.506
2.240	8.558	3.973	2.526
2.260	8.531	3.977	2.546
2.280	8.505	3.981	2.565
2.300	8.478	3.984	2.584
2.320	8.451	3.987	2.604
2.340	8.423	3.990	2.625
2.360	8.394	3.992	2.646
2.380	8.365	3.994	2.668
2.400	8.334	3.996	2.691
2.420	8.356	3.997	2.715
2.440	8.321	3.999	2.740
2.460	8.285	3.999	2.767
2.480	8.247	4.000	2.795
2.500	8.425	4.000	2.823
2.520	8.385	4.000	2.852
2.540	8.506	3.999	2.881
2.560	8.466	3.999	2.910
2.580	8.425	3.997	2.940
2.600	8.544	3.996	2.969
2.620	8.503	3.994	2.998
2.640	8.516	3.992	3.027
2.660	8.528	3.990	3.055
2.680	8.489	3.987	3.083
2.700	8.451	3.984	3.110
2.720	8.413	3.981	3.137
2.740	8.532	3.977	3.163
2.760	8.495	3.973	3.189
2.780	8.459	3.969	3.215
2.800	8.423	3.965	3.240
2.820	8.389	3.960	3.265
2.840	8.353	3.955	3.290
2.860	8.317	3.949	3.315
2.880	8.280	3.943	3.342
2.900	8.243	3.937	3.369
2.920	8.205	3.931	3.396
2.940	8.166	3.924	3.424
2.960	8.127	3.917	3.452
2.980	8.087	3.910	3.480
3.000	8.047	3.902	3.509
3.020	8.007	3.894	3.538
3.040	7.967	3.886	3.567
3.060	7.928	3.877	3.596
3.080	7.888	3.869	3.625
3.100	7.848	3.860	3.654
3.120	7.809	3.850	3.683
3.140	7.769	3.840	3.712
3.160	7.731	3.830	3.740
3.180	7.693	3.820	3.768
3.200	7.655	3.810	3.795
3.220	7.571	3.799	3.822
3.240	7.442	3.788	3.848
3.260	7.314	3.776	3.874
3.280	7.281	3.765	3.898
3.300	7.203	3.753	3.922
3.320	7.172	3.740	3.946
3.340	7.143	3.728	3.968
3.360	7.022	3.715	3.990
3.380	6.995	3.702	4.010
3.400	6.923	3.689	4.031
3.420	6.899	3.675	4.050
3.440	6.875	3.661	4.068
3.460	6.853	3.647	4.086
3.480	6.831	3.633	4.102
3.500	6.811	3.618	4.118
3.520	6.747	3.603	4.133
3.540	6.729	3.588	4.147
3.560	6.712	3.573	4.161
3.580	6.697	3.557	4.172
3.600	6.685	3.541	4.182
3.620	6.675	3.525	4.190
3.640	6.667	3.509	4.196
3.660	6.661	3.492	4.201
3.680	6.656	3.475	4.205
3.700	6.653	3.458	4.207
3.720	6.652	3.441	4.208
3.740	6.653	3.423	4.207
3.760	6.655	3.405	4.205
3.780	6.659	3.387	4.203
3.800	6.664	3.369	4.199
3.820	6.669	3.351	4.194
3.840	6.676	3.332	4.189
3.860	6.683	3.313	4.183
3.880	6.692	3.294	4.176
3.900	6.701	3.275	4.169
3.920	6.712	3.255	4.161
3.940	6.677	3.236	4.152
3.960	6.689	3.216	4.143
3.980	6.655	3.196	4.134
4.000	6.622	3.176	4.124
4.020	6.543	3.155	4.114
4.040	6.510	3.135	4.103
4.060	6.523	3.114	4.093
4.080	6.536	3.093	4.082
4.100	6.550	3.072	4.071
4.120	6.563	3.050	4.061
4.140	6.576	3.029	4.050
4.160	6.590	3.007	4.039
4.180	6.603	2.985	4.028
4.200	6.617	2.964	4.017
4.220	6.630	2.941	4.007
4.240	6.643	2.919	3.996
4.260	6.656	2.897	3.986
4.280	6.669	2.874	3.975
4.300	6.682	2.852	3.964
4.320	6.695	2.829	3.954
4.340	6.709	2.806	3.943
4.360	6.677	2.783	3.931
4.380	6.693	2.760	3.918
4.400	6.616	2.736	3.905
4.420	6.303	2.713	3.891
4.440	6.272	2.689	3.877
4.460	6.194	2.666	3.864
4.480	6.115	2.642	3.850
4.500	5.942	2.618	3.836
4.520	5.910	2.594	3.823
4.540	5.924	2.570	3.810
4.560	5.653	2.546	3.797
4.580	5.667	2.522	3.784
4.600	5.586	2.497	3.771
4.620	5.599	2.473	3.759
4.640	5.612	2.449	3.747
4.660	5.625	2.424	3.735
4.680	5.638	2.399	3.723
4.700	5.554	2.375	3.711
4.720	5.566	2.350	3.700
4.740	5.531	2.325	3.688
4.760	5.546	2.300	3.673
4.780	5.466	2.276	3.657
4.800	5.485	2.251	3.639
4.820	5.506	2.226	3.620
4.840	5.530	2.201	3.598
4.860	5.555	2.176	3.573
4.880	5.582	2.151	3.548
4.900	5.563	2.126	3.520
4.920	5.545	2.100	3.489
4.940	5.529	2.075	3.457
4.960	5.514	2.050	3.424
4.980	5.550	2.025	3.390
5.000	5.486	2.000	3.355
5.020	5.523	1.975	3.319
5.040	5.509	1.950	3.283
5.060	5.548	1.925	3.247
5.080	5.586	1.900	3.209
5.100	5.522	1.874	3.171
5.120	5.510	1.849	3.133
5.140	5.550	1.824	3.094
5.160	5.381	1.799	3.054
5.180	5.210	1.774	3.015
5.200	5.248	1.749	2.976
5.220	5.287	1.724	2.937
5.240	5.326	1.700	2.898
5.260	5.203	1.675	2.858
5.280	5.133	1.650	2.819
5.300	4.791	1.625	2.780
5.320	4.827	1.601	2.740
5.340	4.645	1.576	2.700
5.360	4.681	1.551	2.660
5.380	4.717	1.527	2.620
5.400	4.697	1.503	2.580
5.420	4.565	1.478	2.540
5.440	4.431	1.454	2.500
5.460	4.466	1.430	2.460
5.480	4.444	1.406	2.420
5.500	4.479	1.382	2.378
5.520	4.286	1.358	2.336
5.540	4.323	1.334	2.292
5.560	4.360	1.311	2.247
5.580	4.398	1.287	2.203
5.600	4.436	1.264	2.157
5.620	4.476	1.240	2.110
5.640	4.458	1.217	2.061
5.660	4.502	1.194	2.009
5.680	4.548	1.171	1.955
5.700	4.595	1.148	1.900
5.720	4.643	1.126	1.843
5.740	4.693	1.103	1.786
5.760	4.744	1.081	1.727
5.780	4.796	1.059	1.666
5.800	4.850	1.036	1.605
5.820	4.905	1.015	1.542
5.840	4.961	0.993	1.479
5.860	5.018	0.971	1.414
5.880	5.077	0.950	1.348
5.900	5.136	0.928	1.282
5.920	5.195	0.907	1.216
5.940	5.255	0.886	1.151
5.960	5.314	0.865	1.085
5.980	5.374	0.845	1.020
6.000	5.434	0.824	0.955
6.020	5.493	0.804	0.891
6.040	5.552	0.784	0.828
6.060	5.610	0.764	0.766
6.080	5.668	0.745	0.704
6.100	5.725	0.725	0.644
6.120	5.781	0.706	0.585
6.140	5.908	0.687	0.527
6.160	5.963	0.668	0.471
6.180	6.089	0.649	0.415
6.200	6.142	0.631	0.361
6.220	6.195	0.613	0.309
6.240	6.319	0.595	0.257
6.260	6.517	0.577	0.208
6.280	6.567	0.559	0.159
6.300	6.839	0.542	0.113
6.320	6.888	0.525	0.067
6.340	6.935	0.508	0.023
6.360	6.980	0.491	-0.019
6.380	7.025	0.475	-0.060
6.400	7.373	0.459	-0.099
6.420	7.722	0.443	-0.137
6.440	7.765	0.427	-0.173
6.460	7.806	0.412	-0.208
6.480	7.844	0.397	-0.241
6.500	8.037	0.382	-0.273
6.520	8.150	0.367	-0.302
6.540	8.654	0.353	-0.329
6.560	8.686	0.339	-0.355
6.580	8.716	0.325	-0.378
6.600	8.742	0.311	-0.399
6.620	9.004	0.298	-0.418
6.640	9.023	0.285	-0.433
6.660	9.039	0.272	-0.445
6.680	9.052	0.260	-0.455
6.700	9.062	0.247	-0.462
6.720	9.070	0.235	-0.469
6.740	9.074	0.224	-0.471
6.760	9.071	0.212	-0.469
6.780	9.063	0.201	-0.463
6.800	9.052	0.190	-0.455
6.820	9.038	0.180	-0.444
6.840	9.019	0.170	-0.430
6.860	8.997	0.160	-0.413
6.880	8.969	0.150	-0.391
6.900	8.935	0.140	-0.365
6.920	8.898	0.131	-0.336
6.940	8.936	0.123	-0.305
6.960	8.891	0.114	-0.270
6.980	8.843	0.106	-0.233
7.000	8.793	0.098	-0.194
7.020	8.818	0.090	-0.154
7.040	8.765	0.083	-0.112
7.060	8.710	0.076	-0.070
7.080	8.656	0.069	-0.027
7.100	8.601	0.063	0.016
7.120	8.546	0.057	0.060
7.140	8.492	0.051	0.103
7.160	8.437	0.045	0.147
7.180	8.384	0.040	0.190
7.200	8.330	0.035	0.233
7.220	8.132	0.031	0.275
7.240	8.008	0.027	0.317
7.260	7.959	0.023	0.358
7.280	7.766	0.019	0.398
7.300	7.718	0.016	0.439
7.320	7.672	0.013	0.478
7.340	7.413	0.010	0.517
7.360	7.299	0.008	0.555
7.380	7.045	0.006	0.592
7.400	6.864	0.004	0.629
7.420	6.826	0.003	0.664
7.440	6.789	0.001	0.699
7.460	6.476	0.001	0.732
7.480	6.442	0.000	0.764
7.500	6.341	0.000	0.795
7.520	6.311	0.000	0.825
7.540	6.282	0.001	0.853
7.560	6.256	0.001	0.879
7.580	6.231	0.003	0.903
7.600	6.209	0.004	0.925
7.620	6.190	0.006	0.944
7.640	6.173	0.008	0.961
7.660	6.158	0.010	0.975
7.680	6.146	0.013	0.987
7.700	6.137	0.016	0.996
7.720	6.132	0.019	1.001
7.740	6.130	0.023	1.003
7.760	6.132	0.027	1.001
7.780	6.136	0.031	0.997
7.800	6.144	0.035	0.989
7.820	6.155	0.040	0.979
7.840	6.169	0.045	0.965
7.860	6.184	0.051	0.949
7.880	6.202	0.057	0.932
7.900	6.221	0.063	0.913
7.920	6.242	0.069	0.893
7.940	6.263	0.076	0.871
7.960	6.286	0.083	0.849
7.980	6.309	0.090	0.827
8.000	6.333	0.098	0.803
8.020	6.357	0.106	0.779
8.040	6.382	0.114	0.755
8.060	6.408	0.123	0.731
8.080	6.433	0.131	0.706
8.100	6.459	0.140	0.681
8.120	6.485	0.150	0.656
8.140	6.511	0.160	0.631
8.160	6.537	0.170	0.606
8.180	6.563	0.180	0.581
8.200	6.589	0.190	0.556
8.220	6.614	0.201	0.532
8.240	6.639	0.212	0.508
8.260	6.664	0.224	0.485
8.280	6.688	0.235	0.462
8.300	6.712	0.247	0.439
8.320	6.952	0.260	0.417
8.340	7.047	0.272	0.395
8.360	7.215	0.285	0.374
8.380	7.238	0.298	0.354
8.400	7.260	0.311	0.334
8.420	7.282	0.325	0.315
8.440	7.302	0.339	0.296
8.460	7.323	0.353	0.278
8.480	7.342	0.367	0.261
8.500	7.361	0.382	0.244
8.520	7.379	0.397	0.228
8.540	7.397	0.412	0.213
8.560	7.413	0.427	0.198
8.580	7.429	0.443	0.184
8.600	7.445	0.459	0.170
8.620	7.459	0.475	0.157
8.640	7.473	0.491	0.145
8.660	7.485	0.508	0.135
8.680	7.495	0.525	0.126
8.700	7.501	0.542	0.120
8.720	7.506	0.559	0.117
8.740	7.508	0.577	0.114
8.760	7.510	0.595	0.113
8.780	7.509	0.613	0.113
8.800	7.508	0.631	0.114
8.820	7.506	0.649	0.116
8.840	7.503	0.668	0.119
8.860	7.500	0.687	0.122
8.880	7.496	0.706	0.126
8.900	7.491	0.725	0.130
8.920	7.485	0.745	0.134
8.940	7.554	0.764	0.140
8.960	7.622	0.784	0.145
8.980	7.689	0.804	0.151
9.000	7.682	0.824	0.157
9.020	7.675	0.845	0.164
9.040	7.667	0.865	0.171
9.060	7.659	0.886	0.178
9.080	7.650	0.907	0.185
9.100	7.642	0.928	0.192
9.120	7.633	0.950	0.199
9.140	7.625	0.971	0.207
9.160	7.616	0.993	0.214
9.180	7.607	1.015	0.222
9.200	7.599	1.036	0.229
9.220	7.590	1.059	0.236
9.240	7.582	1.081	0.244
9.260	7.574	1.103	0.251
9.280	7.858	1.126	0.258
9.300	7.849	1.148	0.267
9.320	7.838	1.171	0.276
9.340	7.827	1.194	0.285
9.360	7.961	1.217	0.295
9.380	7.948	1.240	0.306
9.400	8.009	1.264	0.316
9.420	7.996	1.287	0.326
9.440	8.057	1.311	0.337
9.460	8.044	1.334	0.347
9.480	8.104	1.358	0.357
9.500	8.092	1.382	0.367
9.520	8.080	1.406	0.377
9.540	8.358	1.430	0.387
9.560	8.346	1.454	0.396
9.580	8.334	1.478	0.405
9.600	8.323	1.503	0.414
9.620	8.310	1.527	0.425
9.640	8.296	1.551	0.437
9.660	8.352	1.576	0.449
9.680	8.837	1.601	0.462
9.700	8.819	1.625	0.476
9.720	9.014	1.650	0.491
9.740	8.993	1.675	0.507
9.760	9.043	1.700	0.523
9.780	9.091	1.724	0.540
9.800	9.351	1.749	0.558
9.820	9.326	1.774	0.576
9.840	9.371	1.799	0.595
9.860	9.346	1.824	0.614
9.880	9.387	1.849	0.634
9.900	9.427	1.874	0.657
9.920	9.396	1.900	0.680
9.940	9.363	1.925	0.703
9.960	9.331	1.950	0.727
9.980	9.298	1.975	0.751
10.000	9.265	2.000	0.775
10.020	9.227	2.025	0.803
10.040	9.187	2.050	0.833
10.060	9.142	2.075	0.865
10.080	9.096	2.100	0.900
10.100	9.047	2.126	0.936
10.120	8.996	2.151	0.974
10.140	8.942	2.176	1.015
10.160	8.885	2.201	1.057
10.180	8.827	2.226	1.101
10.200	8.767	2.251	1.146
10.220	8.707	2.276	1.192
10.240	8.646	2.300	1.239
10.260	8.584	2.325	1.286
10.280	8.522	2.350	1.333
10.300	8.461	2.375	1.381
10.320	8.400	2.399	1.428
10.340	8.340	2.424	1.474
10.360	8.281	2.449	1.520
10.380	8.223	2.473	1.566
10.400	8.167	2.497	1.610
10.420	8.111	2.522	1.654
10.440	8.119	2.546	1.697
10.460	8.190	2.570	1.738
10.480	8.199	2.594	1.779
10.500	8.149	2.618	1.819
10.520	8.100	2.642	1.857
10.540	8.053	2.666	1.894
10.560	8.007	2.689	1.930
10.580	8.084	2.713	1.964
10.600	8.041	2.736	1.997
10.620	8.060	2.760	2.029
10.640	8.081	2.783	2.059
10.660	8.044	2.806	2.088
10.680	8.008	2.829	2.116
10.700	7.975	2.852	2.142
10.720	7.943	2.874	2.167
10.740	7.913	2.897	2.191
10.760	7.885	2.919	2.213
10.780	7.974	2.941	2.234
10.800	7.947	2.964	2.255
10.820	7.920	2.985	2.276
10.840	7.894	3.007	2.297
10.860	7.869	3.029	2.317
10.880	7.844	3.050	2.336
10.900	7.821	3.072	2.355
10.920	7.797	3.093	2.373
10.940	7.775	3.114	2.391
10.960	7.752	3.135	2.409
10.980	7.729	3.155	2.427
11.000	7.707	3.176	2.445
11.020	7.685	3.196	2.462
11.040	7.664	3.216	2.479
11.060	7.643	3.236	2.495
11.080	7.623	3.255	2.511
11.100	7.604	3.275	2.526
11.120	7.585	3.294	2.542
11.140	7.566	3.313	2.557
11.160	7.547	3.332	2.572
11.180	7.529	3.351	2.587
11.200	7.511	3.369	2.601
11.220	7.604	3.387	2.615
11.240	7.698	3.405	2.629
11.260	7.681	3.423	2.642
11.280	7.666	3.441	2.654
11.300	7.650	3.458	2.666
11.320	7.636	3.475	2.678
11.340	7.622	3.492	2.689
11.360	7.608	3.509	2.699
11.380	7.595	3.525	2.710
11.400	7.583	3.541	2.719
11.420	7.572	3.557	2.728
11.440	7.615	3.573	2.737
11.460	7.605	3.588	2.745
11.480	7.595	3.603	2.753
11.500	7.640	3.618	2.760
11.520	7.632	3.633	2.767
11.540	7.623	3.647	2.774
11.560	7.723	3.661	2.780
11.580	7.768	3.675	2.788
11.600	7.758	3.689	2.796
11.620	7.747	3.702	2.804
11.640	7.790	3.715	2.813
11.660	7.780	3.728	2.821
11.680	7.769	3.740	2.829
11.700	7.813	3.753	2.837
11.720	7.802	3.765	2.845
11.740	7.846	3.776	2.853
11.760	7.837	3.788	2.860
11.780	7.827	3.799	2.868
11.800	7.817	3.810	2.875
11.820	8.021	3.820	2.883
11.840	8.011	3.830	2.890
11.860	8.161	3.840	2.898
11.880	8.150	3.850	2.906
11.900	8.139	3.860	2.915
11.920	8.126	3.869	2.924
11.940	8.113	3.877	2.934
11.960	8.099	3.886	2.944
11.980	8.085	3.894	2.955
12.000	8.070	3.902	2.966
12.020	8.055	3.910	2.977
12.040	8.040	3.917	2.988
12.060	8.024	3.924	3.000
12.080	8.008	3.931	3.012
12.100	7.992	3.937	3.025
12.120	7.975	3.943	3.037
12.140	7.958	3.949	3.050
12.160	7.939	3.955	3.064
12.180	7.920	3.960	3.079
12.200	7.898	3.965	3.095
12.220	7.875	3.969	3.112
12.240	7.851	3.973	3.131
12.260	7.826	3.977	3.149
12.280	7.801	3.981	3.168
12.300	7.775	3.984	3.187
12.320	7.750	3.987	3.206
12.340	7.725	3.990	3.226
12.360	7.700	3.992	3.244
12.380	7.676	3.994	3.263
12.400	7.651	3.996	3.282
12.420	7.627	3.997	3.300
12.440	7.604	3.999	3.318
12.460	7.580	3.999	3.336
12.480	7.558	4.000	3.353
12.500	7.535	4.000	3.370
12.520	7.514	4.000	3.387
12.540	7.492	3.999	3.403
12.560	7.421	3.999	3.419
12.580	7.401	3.997	3.435
12.600	7.382	3.996	3.450
12.620	7.214	3.994	3.464
12.640	7.047	3.992	3.478
12.660	7.030	3.990	3.492
12.680	7.014	3.987	3.505
12.700	6.949	3.984	3.517
12.720	6.934	3.981	3.529
12.740	6.920	3.977	3.541
12.760	6.906	3.973	3.552
12.780	6.893	3.969	3.562
12.800	6.881	3.965	3.572
12.820	6.870	3.960	3.581
12.840	6.859	3.955	3.590
12.860	6.848	3.949	3.599
12.880	6.838	3.943	3.607
12.900	6.830	3.937	3.614
12.920	6.822	3.931	3.620
12.940	6.815	3.924	3.626
12.960	6.809	3.917	3.630
12.980	6.807	3.910	3.633
13.000	6.806	3.902	3.633
13.020	6.807	3.894	3.632
13.040	6.809	3.886	3.630
13.060	6.813	3.877	3.627
13.080	6.818	3.869	3.623
13.100	6.824	3.860	3.619
13.120	6.782	3.850	3.613
13.140	6.740	3.840	3.607
13.160	6.650	3.830	3.601
13.180	6.658	3.820	3.594
13.200	6.618	3.810	3.587
13.220	6.627	3.799	3.579
13.240	6.587	3.788	3.572
13.260	6.548	3.776	3.564
13.280	6.558	3.765	3.555
13.300	6.568	3.753	3.547
13.320	6.578	3.740	3.538
13.340	6.589	3.728	3.529
13.360	6.600	3.715	3.520
13.380	6.610	3.702	3.511
13.400	6.621	3.689	3.502
13.420	6.632	3.675	3.493
13.440	6.643	3.661	3.484
13.460	6.654	3.647	3.475
13.480	6.666	3.633	3.465
13.500	6.679	3.618	3.454
13.520	6.692	3.603	3.443
13.540	6.706	3.588	3.431
13.560	6.721	3.573	3.419
13.580	6.737	3.557	3.406
13.600	6.753	3.541	3.392
13.620	6.770	3.525	3.378
13.640	6.788	3.509	3.364
13.660	6.805	3.492	3.349
13.680	6.823	3.475	3.334
13.700	6.840	3.458	3.320
13.720	6.858	3.441	3.305
13.740	6.875	3.423	3.291
13.760	6.893	3.405	3.277
13.780	6.910	3.387	3.263
13.800	6.927	3.369	3.249
13.820	6.943	3.351	3.235
13.840	6.960	3.332	3.222
13.860	6.976	3.313	3.208
13.880	6.992	3.294	3.195
13.900	7.007	3.275	3.183
13.920	7.023	3.255	3.170
13.940	7.038	3.236	3.158
13.960	7.052	3.216	3.146
13.980	7.066	3.196	3.135
14.000	7.080	3.176	3.124
14.020	7.093	3.155	3.113
14.040	7.106	3.135	3.102
14.060	7.118	3.114	3.092
14.080	7.130	3.093	3.083
14.100	7.142	3.072	3.073
14.120	7.153	3.050	3.064
14.140	7.163	3.029	3.056
14.160	7.174	3.007	3.047
14.180	7.183	2.985	3.040
14.200	7.193	2.964	3.032
14.220	7.201	2.941	3.025
14.240	7.210	2.919	3.018
14.260	7.218	2.897	3.012
14.280	7.225	2.874	3.006
14.300	7.232	2.852	3.000
14.320	7.239	2.829	2.994
14.340	7.245	2.806	2.989
14.360	7.251	2.783	2.985
14.380	7.257	2.760	2.980
14.400	7.262	2.736	2.976
14.420	7.267	2.713	2.972
14.440	7.271	2.689	2.969
14.460	7.275	2.666	2.965
14.480	7.279	2.642	2.962
14.500	7.176	2.618	2.959
14.520	7.179	2.594	2.957
14.540	7.129	2.570	2.955
14.560	6.972	2.546	2.952
14.580	6.975	2.522	2.951
14.600	6.923	2.497	2.949
14.620	6.925	2.473	2.947
14.640	6.927	2.449	2.946
14.660	6.609	2.424	2.945
14.680	6.610	2.399	2.944
14.700	6.611	2.375	2.943
14.720	6.612	2.350	2.943
14.740	6.452	2.325	2.942
14.760	6.453	2.300	2.942
14.780	6.453	2.276	2.942
14.800	6.453	2.251	2.941
14.820	6.453	2.226	2.941
14.840	6.401	2.201	2.941
14.860	6.402	2.176	2.940
14.880	6.244	2.151	2.938
14.900	6.247	2.126	2.935
14.920	6.145	2.100	2.931
14.940	6.150	2.075	2.926
14.960	6.157	2.050	2.921
14.980	6.003	2.025	2.914
15.000	6.013	2.000	2.906
15.020	6.024	1.975	2.895
15.040	5.983	1.950	2.884
15.060	5.996	1.925	2.871
15.080	5.904	1.900	2.857
15.100	5.920	1.874	2.842
15.120	5.884	1.849	2.825
15.140	5.902	1.824	2.808
15.160	5.703	1.799	2.791
15.180	5.722	1.774	2.773
15.200	5.578	1.749	2.754
15.220	5.598	1.724	2.734
15.240	5.564	1.700	2.713
15.260	5.587	1.675	2.691
15.280	5.611	1.650	2.667
15.300	5.635	1.625	2.643
15.320	5.550	1.601	2.618
15.340	5.576	1.576	2.592
15.360	5.436	1.551	2.565
15.380	5.408	1.527	2.537
15.400	5.435	1.503	2.508
15.420	5.182	1.478	2.479
15.440	5.210	1.454	2.449
15.460	5.239	1.430	2.419
15.480	5.269	1.406	2.388
15.500	5.300	1.382	2.356
15.520	5.044	1.358	2.323
15.540	5.077	1.334	2.288
15.560	5.110	1.311	2.252
15.580	5.145	1.287	2.215
15.600	5.180	1.264	2.177
15.620	5.215	1.240	2.139
15.640	5.251	1.217	2.101
15.660	5.109	1.194	2.063
15.680	5.145	1.171	2.024
15.700	5.182	1.148	1.984
15.720	5.220	1.126	1.943
15.740	5.259	1.103	1.902
15.760	5.299	1.081	1.859
15.780	5.341	1.059	1.814
15.800	5.384	1.036	1.769
15.820	5.427	1.015	1.724
15.840	5.470	0.993	1.678
15.860	5.515	0.971	1.631
15.880	5.561	0.950	1.583
15.900	5.608	0.928	1.534
15.920	5.655	0.907	1.485
15.940	5.702	0.886	1.436
15.960	5.749	0.865	1.388
15.980	5.796	0.845	1.340
16.000	5.844	0.824	1.291
16.020	5.891	0.804	1.243
16.040	5.939	0.784	1.194
16.060	5.987	0.764	1.146
16.080	6.034	0.745	1.099
16.100	6.081	0.725	1.052
16.120	6.128	0.706	1.005
16.140	6.174	0.687	0.960
16.160	6.219	0.668	0.915
16.180	6.263	0.649	0.872
16.200	6.306	0.631	0.829
16.220	6.349	0.613	0.788
16.240	6.391	0.595	0.747
16.260	6.431	0.577	0.708
16.280	6.471	0.559	0.669
16.300	6.510	0.542	0.632
16.320	6.547	0.525	0.596
16.340	6.584	0.508	0.561
16.360	6.619	0.491	0.527
16.380	6.653	0.475	0.495
16.400	6.686	0.459	0.463
16.420	6.718	0.443	0.433
16.440	6.894	0.427	0.404
16.460	6.924	0.412	0.376
16.480	6.953	0.397	0.349
16.500	7.053	0.382	0.324
16.520	7.080	0.367	0.299
16.540	7.179	0.353	0.276
16.560	7.204	0.339	0.253
16.580	7.301	0.325	0.232
16.600	7.324	0.311	0.212
16.620	7.567	0.298	0.193
16.640	7.736	0.285	0.174
16.660	7.831	0.272	0.157
16.680	7.850	0.260	0.141
16.700	8.315	0.247	0.126
16.720	8.407	0.235	0.111
16.740	8.424	0.224	0.098
16.760	8.440	0.212	0.085
16.780	8.453	0.201	0.074
16.800	8.465	0.190	0.065
16.820	8.475	0.180	0.057
16.840	8.484	0.170	0.050
16.860	8.490	0.160	0.045
16.880	8.495	0.150	0.041
16.900	8.498	0.140	0.038
16.920	8.500	0.131	0.037
16.940	8.499	0.123	0.038
16.960	8.496	0.114	0.040
16.980	8.489	0.106	0.046
17.000	8.479	0.098	0.054
17.020	8.466	0.090	0.064
17.040	8.597	0.083	0.079
17.060	8.574	0.076	0.097
17.080	8.622	0.069	0.118
17.100	8.593	0.063	0.142
17.120	8.561	0.057	0.166
17.140	8.528	0.051	0.193
17.160	8.494	0.045	0.220
17.180	8.459	0.040	0.248
17.200	8.423	0.035	0.276
17.220	8.387	0.031	0.305
17.240	8.351	0.027	0.334
17.260	8.314	0.023	0.364
17.280	8.278	0.019	0.393
17.300	8.241	0.016	0.423
17.320	8.205	0.013	0.452
17.340	8.169	0.010	0.482
17.360	8.133	0.008	0.511
17.380	7.954	0.006	0.541
17.400	7.918	0.004	0.571
17.420	7.881	0.003	0.602
17.440	7.844	0.001	0.633
17.460	7.667	0.001	0.663
17.480	7.492	0.000	0.694
17.500	7.457	0.000	0.724
17.520	7.077	0.000	0.753
17.540	7.045	0.001	0.782
17.560	7.014	0.001	0.811
17.580	6.709	0.003	0.838
17.600	6.681	0.004	0.865
17.620	6.653	0.006	0.890
17.640	6.559	0.008	0.915
17.660	6.533	0.010	0.940
17.680	6.509	0.013	0.963
17.700	6.485	0.016	0.985
17.720	6.464	0.019	1.006
17.740	6.444	0.023	1.025
17.760	6.425	0.027	1.043
17.780	6.408	0.031	1.060
17.800	6.393	0.035	1.074
17.820	6.380	0.040	1.086
17.840	6.370	0.045	1.096
17.860	6.363	0.051	1.103
17.880	6.360	0.057	1.106
17.900	6.359	0.063	1.106
17.920	6.362	0.069	1.104
17.940	6.368	0.076	1.098
17.960	6.376	0.083	1.090
17.980	6.387	0.090	1.080
18.000	6.399	0.098	1.068
18.020	6.413	0.106	1.054
18.040	6.428	0.114	1.040
18.060	6.512	0.123	1.024
18.080	6.529	0.131	1.008
18.100	6.547	0.140	0.990
18.120	6.566	0.150	0.973
18.140	6.586	0.160	0.954
18.160	6.606	0.170	0.935
18.180	6.626	0.180	0.916
18.200	6.647	0.190	0.896
18.220	6.668	0.201	0.877
18.240	6.689	0.212	0.856
18.260	6.711	0.224	0.836
18.280	6.801	0.235	0.816
18.300	6.823	0.247	0.796
18.320	6.914	0.260	0.776
18.340	6.935	0.272	0.756
18.360	6.957	0.285	0.737
18.380	6.978	0.298	0.717
18.400	6.999	0.311	0.699
18.420	7.018	0.325	0.680
18.440	7.108	0.339	0.663
18.460	7.126	0.353	0.646
18.480	7.144	0.367	0.630
18.500	7.162	0.382	0.614
18.520	7.179	0.397	0.599
18.540	7.196	0.412	0.584
18.560	7.212	0.427	0.570
18.580	7.227	0.443	0.556
18.600	7.242	0.459	0.543
18.620	7.255	0.475	0.531
18.640	7.268	0.491	0.519
18.660	7.280	0.508	0.509
18.680	7.290	0.525	0.500
18.700	7.300	0.542	0.491
18.720	7.308	0.559	0.484
18.740	7.316	0.577	0.477
18.760	7.323	0.595	0.471
18.780	7.329	0.613	0.465
18.800	7.334	0.631	0.461
18.820	7.338	0.649	0.457
18.840	7.341	0.668	0.454
18.860	7.344	0.687	0.452
18.880	7.848	0.706	0.450
18.900	7.850	0.725	0.449
18.920	7.851	0.745	0.448
18.940	8.282	0.764	0.448
18.960	8.426	0.784	0.448
18.980	8.641	0.804	0.448
19.000	9.142	0.824	0.449
19.020	9.356	0.845	0.450
19.040	9.426	0.865	0.451
19.060	9.424	0.886	0.452
19.080	9.422	0.907	0.454
19.100	9.419	0.928	0.456
19.120	9.416	0.950	0.458
19.140	9.413	0.971	0.461
19.160	9.481	0.993	0.463
19.180	9.478	1.015	0.466
19.200	9.474	1.036	0.468
19.220	9.466	1.059	0.474
19.240	9.454	1.081	0.482
19.260	9.441	1.103	0.492
19.280	9.422	1.126	0.506
19.300	9.398	1.148	0.524
19.320	9.368	1.171	0.545
19.340	9.331	1.194	0.573
19.360	9.285	1.217	0.606
19.380	9.234	1.240	0.644
19.400	9.178	1.264	0.685
19.420	9.120	1.287	0.729
19.440	9.059	1.311	0.774
19.460	8.997	1.334	0.820
19.480	8.934	1.358	0.868
19.500	8.870	1.382	0.916
19.520	8.805	1.406	0.965
19.540	8.874	1.430	1.015
19.560	8.808	1.454	1.065
19.580	8.809	1.478	1.115
19.600	8.875	1.503	1.165
19.620	8.809	1.527	1.214
19.640	8.809	1.551	1.264
19.660	8.744	1.576	1.313
19.680	8.679	1.601	1.361
19.700	8.617	1.625	1.409
19.720	8.555	1.650	1.456
19.740	8.495	1.675	1.502
19.760	8.436	1.700	1.547
19.780	8.380	1.724	1.591
19.800	8.325	1.749	1.633
19.820	8.272	1.774	1.674
19.840	8.159	1.799	1.714
19.860	8.110	1.824	1.753
19.880	8.062	1.849	1.790
19.900	8.015	1.874	1.827
19.920	7.969	1.900	1.864
19.940	7.924	1.925	1.900
19.960	7.879	1.950	1.936
19.980	7.834	1.975	1.971
20.000	7.791	2.000	2.006
20.020	7.749	2.025	2.040
20.040	7.708	2.050	2.073
20.060	7.668	2.075	2.105
20.080	7.630	2.100	2.136
20.100	7.594	2.126	2.165
20.120	7.560	2.151	2.193
20.140	7.527	2.176	2.220
20.160	7.495	2.201	2.246
20.180	7.466	2.226	2.270
20.200	7.438	2.251	2.293
20.220	7.412	2.276	2.314
20.240	7.388	2.300	2.334
20.260	7.365	2.325	2.353
20.280	7.344	2.350	2.370
20.300	7.324	2.375	2.387
20.320	7.305	2.399	2.402
20.340	7.288	2.424	2.417
20.360	7.272	2.449	2.430
20.380	7.257	2.473	2.442
20.400	7.243	2.497	2.453
20.420	7.231	2.522	2.464
20.440	7.220	2.546	2.473
20.460	7.209	2.570	2.482
20.480	7.200	2.594	2.489
20.500	7.192	2.618	2.496
20.520	7.184	2.642	2.502
20.540	7.178	2.666	2.508
20.560	7.172	2.689	2.513
20.580	7.168	2.713	2.517
20.600	7.163	2.736	2.520
20.620	7.160	2.760	2.523
20.640	7.157	2.783	2.525
20.660	7.155	2.806	2.527
20.680	7.154	2.829	2.528
20.700	7.153	2.852	2.529
20.720	7.152	2.874	2.529
20.740	7.152	2.897	2.529
20.760	7.153	2.919	2.529
20.780	7.153	2.941	2.528
20.800	7.155	2.964	2.527
20.820	7.156	2.985	2.526
20.840	7.158	3.007	2.525
20.860	7.160	3.029	2.523
20.880	7.162	3.050	2.521
20.900	7.165	3.072	2.519
20.920	7.168	3.093	2.516
20.940	7.171	3.114	2.514
20.960	7.286	3.135	2.511
20.980	7.290	3.155	2.509
21.000	7.293	3.176	2.506
21.020	7.297	3.196	2.503
21.040	7.300	3.216	2.500
21.060	7.304	3.236	2.497
21.080	7.308	3.255	2.494
21.100	7.311	3.275	2.491
21.120	7.315	3.294	2.488
21.140	7.319	3.313	2.484
21.160	7.323	3.332	2.481
21.180	7.326	3.351	2.478
21.200	7.387	3.369	2.475
21.220	7.390	3.387	2.472
21.240	7.507	3.405	2.469
21.260	7.680	3.423	2.466
21.280	7.684	3.441	2.463
21.300	7.856	3.458	2.461
21.320	7.858	3.475	2.459
21.340	7.860	3.492	2.458
21.360	7.861	3.509	2.457
21.380	7.861	3.525	2.457
21.400	7.918	3.541	2.457
21.420	7.919	3.557	2.456
21.440	7.919	3.573	2.456
21.460	8.031	3.588	2.456
21.480	8.031	3.603	2.457
21.500	8.144	3.618	2.457
21.520	8.143	3.633	2.458
21.540	8.142	3.647	2.459
21.560	8.140	3.661	2.460
21.580	8.137	3.675	2.462
21.600	8.132	3.689	2.466
21.620	8.125	3.702	2.471
21.640	8.115	3.715	2.479
21.660	8.216	3.728	2.488
21.680	8.203	3.740	2.498
21.700	8.189	3.753	2.508
21.720	8.174	3.765	2.520
21.740	8.157	3.776	2.532
21.760	8.141	3.788	2.545
21.780	8.123	3.799	2.558
21.800	8.104	3.810	2.572
21.820	8.085	3.820	2.587
21.840	8.063	3.830	2.604
21.860	8.041	3.840	2.621
21.880	8.017	3.850	2.638
21.900	7.993	3.860	2.657
21.920	7.969	3.869	2.675
21.940	7.944	3.877	2.694
21.960	7.920	3.886	2.713
21.980	7.895	3.894	2.732
22.000	7.869	3.902	2.752
22.020	7.843	3.910	2.772
22.040	7.817	3.917	2.792
22.060	7.791	3.924	2.812
22.080	7.764	3.931	2.833
22.100	7.738	3.937	2.853
22.120	7.713	3.943	2.873
22.140	7.687	3.949	2.892
22.160	7.662	3.955	2.912
22.180	7.638	3.960	2.931
22.200	7.614	3.965	2.950
22.220	7.590	3.969	2.968
22.240	7.567	3.973	2.986
22.260	7.545	3.977	3.003
22.280	7.523	3.981	3.020
22.300	7.502	3.984	3.037
22.320	7.482	3.987	3.053
22.340	7.462	3.990	3.068
22.360	7.443	3.992	3.083
22.380	7.425	3.994	3.097
22.400	7.408	3.996	3.111
22.420	7.391	3.997	3.124
22.440	7.375	3.999	3.137
22.460	7.360	3.999	3.149
22.480	7.345	4.000	3.160
22.500	7.331	4.000	3.171
22.520	7.318	4.000	3.182
22.540	7.306	3.999	3.192
22.560	7.294	3.999	3.201
22.580	7.283	3.997	3.210
22.600	7.272	3.996	3.218
22.620	7.263	3.994	3.226
22.640	7.254	3.992	3.233
22.660	7.245	3.990	3.240
22.680	7.237	3.987	3.246
22.700	7.230	3.984	3.252
22.720	7.223	3.981	3.257
22.740	7.217	3.977	3.262
22.760	7.211	3.973	3.267
22.780	7.206	3.969	3.271
22.800	7.201	3.965	3.275
22.820	7.197	3.960	3.278
22.840	7.193	3.955	3.282
22.860	7.189	3.949	3.284
22.880	7.186	3.943	3.287
22.900	7.184	3.937	3.289
22.920	7.181	3.931	3.291
22.940	7.179	3.924	3.292
22.960	7.178	3.917	3.293
22.980	7.177	3.910	3.294
23.000	7.176	3.902	3.295
23.020	7.175	3.894	3.296
23.040	7.174	3.886	3.296
23.060	7.174	3.877	3.296
23.080	7.174	3.869	3.296
23.100	7.174	3.860	3.296
23.120	7.175	3.850	3.296
23.140	7.175	3.840	3.296
23.160	7.176	3.830	3.295
23.180	7.177	3.820	3.294
23.200	7.178	3.810	3.294
23.220	7.179	3.799	3.293
23.240	7.180	3.788	3.292
23.260	7.181	3.776	3.291
23.280	7.183	3.765	3.289
23.300	7.184	3.753	3.288
23.320	7.186	3.740	3.287
23.340	7.188	3.728	3.286
23.360	7.189	3.715	3.284
23.380	7.191	3.702	3.283
23.400	7.193	3.689	3.281
23.420	7.195	3.675	3.280
23.440	7.196	3.661	3.279
23.460	7.198	3.647	3.277
23.480	7.200	3.633	3.276
23.500	7.202	3.618	3.274
23.520	7.204	3.603	3.273
23.540	7.205	3.588	3.271
23.560	7.207	3.573	3.270
23.580	7.209	3.557	3.269
23.600	7.211	3.541	3.267
23.620	7.213	3.525	3.266
23.640	7.214	3.509	3.264
23.660	7.216	3.492	3.263
23.680	7.217	3.475	3.262
23.700	7.219	3.458	3.261
23.720	7.221	3.441	3.259
23.740	7.222	3.423	3.258
23.760	7.224	3.405	3.257
23.780	7.225	3.387	3.256
23.800	7.226	3.369	3.255
23.820	7.228	3.351	3.254
23.840	7.229	3.332	3.253
23.860	7.230	3.313	3.252
23.880	7.231	3.294	3.251
23.900	7.232	3.275	3.250
23.920	7.233	3.255	3.249
23.940	7.183	3.236	3.248
23.960	7.133	3.216	3.248
23.980	6.980	3.196	3.247
24.000	6.981	3.176	3.246
24.020	6.829	3.155	3.245
24.040	6.676	3.135	3.245
24.060	6.676	3.114	3.244
24.080	6.575	3.093	3.244
24.100	6.524	3.072	3.243
24.120	6.525	3.050	3.243
24.140	6.423	3.029	3.242
24.160	6.423	3.007	3.242
24.180	6.424	2.985	3.241
24.200	6.373	2.964	3.241
24.220	6.322	2.941	3.241
24.240	6.015	2.919	3.240
24.260	5.913	2.897	3.240
24.280	5.760	2.874	3.239
24.300	5.761	2.852	3.238
24.320	5.764	2.829	3.236
24.340	5.767	2.806	3.233
24.360	5.721	2.783	3.228
24.380	5.677	2.760	3.220
24.400	5.686	2.736	3.212
24.420	5.646	2.713	3.201
24.440	5.659	2.689	3.189
24.460	5.621	2.666	3.176
24.480	5.636	2.642	3.161
24.500	5.653	2.618	3.145
24.520	5.359	2.594	3.129
24.540	5.376	2.570	3.111
24.560	5.291	2.546	3.092
24.580	5.312	2.522	3.071
24.600	5.336	2.497	3.047
24.620	5.310	2.473	3.021
24.640	5.127	2.449	2.992
24.660	5.103	2.424	2.962
24.680	4.920	2.399	2.931
24.700	4.950	2.375	2.898
24.720	4.982	2.350	2.865
24.740	5.014	2.325	2.831
24.760	5.047	2.300	2.796
24.780	4.918	2.276	2.760
24.800	4.952	2.251	2.724
24.820	4.931	2.226	2.687
24.840	4.855	2.201	2.651
24.860	4.890	2.176	2.612
24.880	4.871	2.151	2.572
24.900	4.909	2.126	2.530
24.920	4.949	2.100	2.488
24.940	4.988	2.075	2.445
24.960	4.972	2.050	2.401
24.980	4.957	2.025	2.356
25.000	4.884	2.000	2.309
25.020	4.928	1.975	2.260
25.040	4.916	1.950	2.210
25.060	4.962	1.925	2.159
25.080	5.009	1.900	2.108
25.100	5.056	1.874	2.057
25.120	5.044	1.849	2.004
25.140	5.092	1.824	1.952
25.160	5.141	1.799	1.899
25.180	5.190	1.774	1.845
25.200	5.241	1.749	1.791
25.220	5.291	1.724	1.736
25.240	5.342	1.700	1.681
25.260	5.394	1.675	1.627
25.280	5.444	1.650	1.573
25.300	5.495	1.625	1.519
25.320	5.546	1.601	1.465
25.340	5.598	1.576	1.411
25.360	5.650	1.551	1.357
25.380	5.702	1.527	1.303
25.400	5.754	1.503	1.249
25.420	5.806	1.478	1.196
25.440	5.858	1.454	1.143
25.460	5.909	1.430	1.090
25.480	5.960	1.406	1.039
25.500	6.011	1.382	0.988
25.520	6.060	1.358	0.938
25.540	6.109	1.334	0.889
25.560	6.363	1.311	0.841
25.580	6.412	1.287	0.794
25.600	6.598	1.264	0.748
25.620	6.784	1.240	0.704
25.640	6.831	1.217	0.660
25.660	7.228	1.194	0.618
25.680	7.486	1.171	0.577
25.700	7.745	1.148	0.538
25.720	7.933	1.126	0.499
25.740	8.121	1.103	0.462
25.760	8.164	1.081	0.426
25.780	8.351	1.059	0.392
25.800	8.393	1.036	0.359
25.820	8.433	1.015	0.327
25.840	8.471	0.993	0.296
25.860	8.508	0.971	0.266
25.880	8.544	0.950	0.238
25.900	8.577	0.928	0.212
25.920	8.607	0.907	0.189
25.940	8.633	0.886	0.168
25.960	8.656	0.865	0.150
25.980	8.675	0.845	0.135
26.000	8.689	0.824	0.124
26.020	8.696	0.804	0.119
26.040	8.697	0.784	0.118
26.060	8.692	0.764	0.122
26.080	8.681	0.745	0.131
26.100	8.665	0.725	0.143
26.120	8.644	0.706	0.159
26.140	8.619	0.687	0.179
26.160	8.591	0.668	0.201
26.180	8.561	0.649	0.225
26.200	8.528	0.631	0.251
26.220	8.494	0.613	0.278
26.240	8.458	0.595	0.306
26.260	8.421	0.577	0.336
26.280	8.383	0.559	0.366
26.300	8.344	0.542	0.398
26.320	8.304	0.525	0.430
26.340	8.264	0.508	0.462
26.360	8.224	0.491	0.495
26.380	8.183	0.475	0.528
26.400	8.142	0.459	0.562
26.420	8.101	0.443	0.595
26.440	8.060	0.427	0.628
26.460	8.020	0.412	0.661
26.480	7.980	0.397	0.694
26.500	7.941	0.382	0.726
26.520	7.903	0.367	0.758
26.540	7.865	0.353	0.789
26.560	7.829	0.339	0.820
26.580	7.793	0.325	0.850
26.600	7.758	0.311	0.879
26.620	7.725	0.298	0.907
26.640	7.692	0.285	0.934
26.660	7.661	0.272	0.961
26.680	7.631	0.260	0.986
26.700	7.400	0.247	1.011
26.720	7.372	0.235	1.035
26.740	7.213	0.224	1.057
26.760	7.054	0.212	1.079
26.780	7.031	0.201	1.100
26.800	6.743	0.190	1.120
26.820	6.657	0.180	1.139
26.840	6.638	0.170	1.157
26.860	6.619	0.160	1.174
26.880	6.602	0.150	1.190
26.900	6.586	0.140	1.205
26.920	6.571	0.131	1.219
26.940	6.556	0.123	1.233
26.960	6.543	0.114	1.245
26.980	6.531	0.106	1.257
27.000	6.519	0.098	1.268
27.020	6.508	0.090	1.278
27.040	6.499	0.083	1.287
27.060	6.492	0.076	1.293
27.080	6.488	0.069	1.298
27.100	6.486	0.063	1.299
27.120	6.486	0.057	1.299
27.140	6.490	0.051	1.296
27.160	6.496	0.045	1.289
27.180	6.505	0.040	1.281
27.200	6.516	0.035	1.271
27.220	6.529	0.031	1.259
27.240	6.542	0.027	1.246
27.260	6.557	0.023	1.232
27.280	6.573	0.019	1.218
27.300	6.589	0.016	1.203
27.320	6.605	0.013	1.187
27.340	6.623	0.010	1.171
27.360	6.640	0.008	1.154
27.380	6.658	0.006	1.137
27.400	6.677	0.004	1.120
27.420	6.695	0.003	1.103
27.440	6.714	0.001	1.086
27.460	6.733	0.001	1.068
27.480	6.752	0.000	1.050
27.500	6.771	0.000	1.032
27.520	6.790	0.000	1.015
27.540	6.809	0.001	0.997
27.560	6.828	0.001	0.980
27.580	6.847	0.003	0.963
27.600	6.865	0.004	0.946
27.620	6.883	0.006	0.930
27.640	6.901	0.008	0.913
27.660	6.918	0.010	0.897
27.680	6.935	0.013	0.882
27.700	6.952	0.016	0.867
27.720	6.968	0.019	0.852
27.740	6.984	0.023	0.838
27.760	7.205	0.027	0.824
27.780	7.221	0.031	0.810
27.800	7.373	0.035	0.797
27.820	7.526	0.040	0.785
27.840	7.540	0.045	0.773
27.860	7.623	0.051	0.761
27.880	7.636	0.057	0.750
27.900	7.718	0.063	0.739
27.920	7.869	0.069	0.729
27.940	7.881	0.076	0.719
27.960	7.892	0.083	0.709
27.980	8.042	0.090	0.700
28.000	8.053	0.098	0.692
28.020	8.062	0.106	0.684
28.040	8.072	0.114	0.676
28.060	8.221	0.123	0.669
28.080	8.229	0.131	0.662
28.100	8.306	0.140	0.657
28.120	8.311	0.150	0.653
28.140	8.313	0.160	0.651
28.160	8.313	0.170	0.651
28.180	8.310	0.180	0.653
28.200	8.305	0.190	0.657
28.220	8.298	0.201	0.663
28.240	8.290	0.212	0.670
28.260	8.279	0.224	0.679
28.280	8.266	0.235	0.689
28.300	8.321	0.247	0.701
28.320	8.304	0.260	0.714
28.340	8.355	0.272	0.729
28.360	8.404	0.285	0.745
28.380	8.383	0.298	0.762
28.400	8.429	0.311	0.780
28.420	8.611	0.325	0.800
28.440	8.584	0.339	0.820
28.460	8.556	0.353	0.842
28.480	8.528	0.367	0.865
28.500	8.635	0.382	0.888
28.520	8.605	0.397	0.911
28.540	8.574	0.412	0.934
28.560	8.815	0.427	0.958
28.580	8.783	0.443	0.982
28.600	8.753	0.459	1.005
28.620	8.722	0.475	1.029
28.640	8.691	0.491	1.052
28.660	8.660	0.508	1.076
28.680	8.629	0.525	1.100
28.700	8.730	0.542	1.124
28.720	8.697	0.559	1.149
28.740	8.730	0.577	1.174
28.760	8.695	0.595	1.201
28.780	8.659	0.613	1.229
28.800	8.622	0.631	1.257
28.820	8.585	0.649	1.285
28.840	8.612	0.668	1.314
28.860	8.574	0.687	1.343
28.880	8.535	0.706	1.373
28.900	8.495	0.725	1.404
28.920	8.454	0.745	1.435
28.940	8.476	0.764	1.468
28.960	8.434	0.784	1.500
28.980	8.392	0.804	1.533
29.000	8.350	0.824	1.565
29.020	8.310	0.845	1.596
29.040	8.268	0.865	1.628
29.060	8.227	0.886	1.661
29.080	8.186	0.907	1.693
29.100	8.145	0.928	1.725
29.120	8.104	0.950	1.757
29.140	8.126	0.971	1.789
29.160	8.086	0.993	1.819
29.180	8.047	1.015	1.850
29.200	8.009	1.036	1.881
29.220	7.971	1.059	1.910
29.240	7.934	1.081	1.940
29.260	7.899	1.103	1.968
29.280	7.863	1.126	1.996
29.300	7.829	1.148	2.024
29.320	7.795	1.171	2.050
29.340	7.763	1.194	2.076
29.360	7.731	1.217	2.102
29.380	7.701	1.240	2.126
29.400	7.672	1.264	2.150
29.420	7.644	1.287	2.173
29.440	7.617	1.311	2.194
29.460	7.591	1.334	2.215
29.480	7.566	1.358	2.236
29.500	7.541	1.382	2.256
29.520	7.518	1.406	2.275
29.540	7.495	1.430	2.293
29.560	7.474	1.454	2.311
29.580	7.453	1.478	2.327
29.600	7.434	1.503	2.343
29.620	7.415	1.527	2.359
29.640	7.398	1.551	2.373
29.660	7.381	1.576	2.387
29.680	7.365	1.601	2.399
29.700	7.351	1.625	2.412
29.720	7.337	1.650	2.423
29.740	7.324	1.675	2.434
29.760	7.312	1.700	2.443
29.780	7.301	1.724	2.453
29.800	7.290	1.749	2.461
29.820	7.281	1.774	2.469
29.840	7.272	1.799	2.477
29.860	7.264	1.824	2.484
29.880	7.256	1.849	2.490
29.900	7.249	1.874	2.495
29.920	7.243	1.900	2.501
29.940	7.237	1.925	2.505
29.960	7.232	1.950	2.509
29.980	7.228	1.975	2.513
30.000	7.224	2.000	2.516
30.020	7.220	2.025	2.519
30.040	7.217	2.050	2.522
30.060	7.215	2.075	2.524
30.080	7.213	2.100	2.526
30.100	7.211	2.126	2.527
30.120	7.210	2.151	2.528
30.140	7.209	2.176	2.529
30.160	7.208	2.201	2.530
30.180	7.208	2.226	2.530
30.200	7.208	2.251	2.530
30.220	7.208	2.276	2.530
30.240	7.208	2.300	2.529
30.260	7.209	2.325	2.529
30.280	7.210	2.350	2.528
30.300	7.211	2.375	2.527
30.320	7.212	2.399	2.526
30.340	7.214	2.424	2.525
30.360	7.215	2.449	2.524
30.380	7.217	2.473	2.522
30.400	7.218	2.497	2.521
30.420	7.220	2.522	2.519
30.440	7.222	2.546	2.518
30.460	7.224	2.570	2.516
30.480	7.226	2.594	2.514
30.500	7.285	2.618	2.513
30.520	7.287	2.642	2.511
30.540	7.345	2.666	2.509
30.560	7.460	2.689	2.507
30.580	7.575	2.713	2.505
30.600	7.577	2.736	2.503
30.620	7.635	2.760	2.502
30.640	7.807	2.783	2.500
30.660	7.978	2.806	2.498
30.680	7.980	2.829	2.496
30.700	8.151	2.852	2.494
30.720	8.210	2.874	2.492
30.740	8.212	2.897	2.491
30.760	8.214	2.919	2.489
30.780	8.217	2.941	2.487
30.800	8.219	2.964	2.486
30.820	8.221	2.985	2.484
30.840	8.223	3.007	2.483
30.860	8.224	3.029	2.482
30.880	8.224	3.050	2.482
30.900	8.223	3.072	2.482
30.920	8.220	3.093	2.485
30.940	8.216	3.114	2.488
30.960	8.209	3.135	2.493
30.980	8.201	3.155	2.499
31.000	8.189	3.176	2.508
31.020	8.175	3.196	2.519
31.040	8.157	3.216	2.532
31.060	8.137	3.236	2.548
31.080	8.115	3.255	2.564
31.100	8.091	3.275	2.582
31.120	8.066	3.294	2.601
31.140	8.040	3.313	2.621
31.160	8.014	3.332	2.641
31.180	7.987	3.351	2.661
31.200	7.960	3.369	2.682
31.220	7.933	3.387	2.703
31.240	7.905	3.405	2.724
31.260	7.878	3.423	2.745
31.280	7.850	3.441	2.767
31.300	7.822	3.458	2.788
31.320	7.795	3.475	2.809
31.340	7.767	3.492	2.830
31.360	7.740	3.509	2.851
31.380	7.713	3.525	2.872
31.400	7.687	3.541	2.893
31.420	7.661	3.557	2.913
31.440	7.635	3.573	2.933
31.460	7.610	3.588	2.952
31.480	7.586	3.603	2.971
31.500	7.562	3.618	2.990
31.520	7.540	3.633	3.008
31.540	7.517	3.647	3.025
31.560	7.496	3.661	3.042
31.580	7.475	3.675	3.058
31.600	7.455	3.689	3.074
31.620	7.436	3.702	3.089
31.640	7.417	3.715	3.104
31.660	7.399	3.728	3.118
31.680	7.382	3.740	3.131
31.700	7.366	3.753	3.144
31.720	7.351	3.765	3.156
31.740	7.336	3.776	3.168
31.760	7.322	3.788	3.179
31.780	7.309	3.799	3.189
31.800	7.297	3.810	3.199
31.820	7.285	3.820	3.208
31.840	7.274	3.830	3.217
31.860	7.263	3.840	3.225
31.880	7.254	3.850	3.233
31.900	7.245	3.860	3.240
31.920	7.236	3.869	3.247
31.940	7.229	3.877	3.253
31.960	7.221	3.886	3.259
31.980	7.215	3.894	3.264
32.000	7.209	3.902	3.269
32.020	7.203	3.910	3.273
32.040	7.198	3.917	3.277
32.060	7.194	3.924	3.281
32.080	7.189	3.931	3.284
32.100	7.186	3.937	3.287
32.120	7.183	3.943	3.290
32.140	7.180	3.949	3.292
32.160	7.177	3.955	3.294
32.180	7.175	3.960	3.295
32.200	7.174	3.965	3.297
32.220	7.172	3.969	3.298
32.240	7.171	3.973	3.299
32.260	7.171	3.977	3.299
32.280	7.170	3.981	3.300
32.300	7.170	3.984	3.300
32.320	7.170	3.987	3.300
32.340	7.170	3.990	3.300
32.360	7.170	3.992	3.299
32.380	7.171	3.994	3.299
32.400	7.172	3.996	3.298
32.420	7.173	3.997	3.298
32.440	7.174	3.999	3.297
32.460	7.175	3.999	3.296
32.480	7.176	4.000	3.295
32.500	7.178	4.000	3.293
32.520	7.179	4.000	3.292
32.540	7.181	3.999	3.291
32.560	7.183	3.999	3.290
32.580	7.184	3.997	3.288
32.600	7.186	3.996	3.287
32.620	7.188	3.994	3.285
32.640	7.190	3.992	3.284
32.660	7.192	3.990	3.282
32.680	7.194	3.987	3.281
32.700	7.196	3.984	3.279
32.720	7.198	3.981	3.278
32.740	7.199	3.977	3.276
32.760	7.201	3.973	3.275
32.780	7.203	3.969	3.273
32.800	7.205	3.965	3.272
32.820	7.207	3.960	3.270
32.840	7.209	3.955	3.269
32.860	7.211	3.949	3.267
32.880	7.213	3.943	3.266
32.900	7.214	3.937	3.264
32.920	7.216	3.931	3.263
32.940	7.218	3.924	3.262
32.960	7.219	3.917	3.260
32.980	7.221	3.910	3.259
33.000	7.222	3.902	3.258
33.020	7.224	3.894	3.257
33.040	7.225	3.886	3.256
33.060	7.227	3.877	3.254
33.080	7.228	3.869	3.253
33.100	7.229	3.860	3.252
33.120	7.231	3.850	3.251
33.140	7.232	3.840	3.250
33.160	7.233	3.830	3.250
33.180	7.234	3.820	3.249
33.200	7.235	3.810	3.248
33.220	7.236	3.799	3.247
33.240	7.237	3.788	3.246
33.260	7.238	3.776	3.246
33.280	7.239	3.765	3.245
33.300	7.240	3.753	3.244
33.320	7.240	3.740	3.244
33.340	7.241	3.728	3.243
33.360	7.242	3.715	3.243
33.380	7.242	3.702	3.242
33.400	7.243	3.689	3.242
33.420	7.243	3.675	3.241
33.440	7.244	3.661	3.241
33.460	7.244	3.647	3.241
33.480	7.245	3.633	3.240
33.500	7.245	3.618	3.240
33.520	7.245	3.603	3.240
33.540	7.246	3.588	3.239
33.560	7.246	3.573	3.239
33.580	7.246	3.557	3.239
33.600	7.246	3.541	3.239
33.620	7.247	3.525	3.239
33.640	7.247	3.509	3.239
33.660	7.247	3.492	3.238
33.680	7.247	3.475	3.238
33.700	7.247	3.458	3.238
33.720	7.247	3.441	3.238
33.740	7.247	3.423	3.238
33.760	7.247	3.405	3.238
33.780	7.094	3.387	3.238
33.800	7.094	3.369	3.238
33.820	7.042	3.351	3.238
33.840	6.889	3.332	3.238
33.860	6.889	3.313	3.238
33.880	6.735	3.294	3.238
33.900	6.735	3.275	3.238
33.920	6.735	3.255	3.238
33.940	6.478	3.236	3.238
33.960	6.325	3.216	3.238
33.980	6.324	3.196	3.238
34.000	6.324	3.176	3.239
34.020	6.324	3.155	3.239
34.040	6.222	3.135	3.239
34.060	6.222	3.114	3.239
34.080	6.222	3.093	3.239
34.100	6.068	3.072	3.239
34.120	6.069	3.050	3.238
34.140	5.968	3.029	3.237
34.160	5.970	3.007	3.234
34.180	5.975	2.985	3.230
34.200	5.980	2.964	3.225
34.220	5.988	2.941	3.219
34.240	5.996	2.919	3.211
34.260	6.006	2.897	3.201
34.280	5.967	2.874	3.190
34.300	5.982	2.852	3.176
34.320	6.000	2.829	3.160
34.340	6.018	2.806	3.143
34.360	5.935	2.783	3.125
34.380	5.904	2.760	3.105
34.400	5.926	2.736	3.084
34.420	5.949	2.713	3.063
34.440	5.869	2.689	3.040
34.460	5.895	2.666	3.015
34.480	5.869	2.642	2.990
34.500	5.898	2.618	2.963
34.520	5.927	2.594	2.936
34.540	5.957	2.570	2.908
34.560	5.934	2.546	2.879
34.580	5.910	2.522	2.851
34.600	5.617	2.497	2.822
34.620	5.646	2.473	2.793
34.640	5.513	2.449	2.764
34.660	5.542	2.424	2.735
34.680	5.517	2.399	2.706
34.700	5.547	2.375	2.676
34.720	5.411	2.350	2.646
34.740	5.441	2.325	2.616
34.760	5.471	2.300	2.585
34.780	5.502	2.276	2.554
34.800	5.421	2.251	2.523
34.820	5.452	2.226	2.491
34.840	5.483	2.201	2.460
34.860	5.514	2.176	2.428
34.880	5.545	2.151	2.397
34.900	5.576	2.126	2.366
34.920	5.608	2.100	2.334
34.940	5.641	2.075	2.301
34.960	5.675	2.050	2.266
34.980	5.712	2.025	2.230
35.000	5.749	2.000	2.193
35.020	5.788	1.975	2.155
35.040	5.709	1.950	2.116
35.060	5.749	1.925	2.076
35.080	5.790	1.900	2.036
35.100	5.771	1.874	1.995
35.120	5.812	1.849	1.954
35.140	5.854	1.824	1.912
35.160	5.835	1.799	1.870
35.180	5.816	1.774	1.828
35.200	5.858	1.749	1.787
35.220	5.837	1.724	1.746
35.240	5.816	1.700	1.705
35.260	5.856	1.675	1.665
35.280	5.896	1.650	1.625
35.300	5.935	1.625	1.586
35.320	5.910	1.601	1.548
35.340	5.884	1.576	1.511
35.360	5.920	1.551	1.474
35.380	5.957	1.527	1.437
35.400	5.993	1.503	1.401
35.420	5.965	1.478	1.365
35.440	6.000	1.454	1.330
35.460	5.970	1.430	1.295
35.480	6.005	1.406	1.261
35.500	6.039	1.382	1.226
35.520	6.073	1.358	1.193
35.540	6.107	1.334	1.159
35.560	6.140	1.311	1.126
35.580	6.174	1.287	1.092
35.600	6.208	1.264	1.059
35.620	6.241	1.240	1.026
35.640	6.274	1.217	0.994
35.660	6.306	1.194	0.962
35.680	6.339	1.171	0.931
35.700	6.372	1.148	0.899
35.720	6.472	1.126	0.868
35.740	6.504	1.103	0.838
35.760	6.535	1.081	0.807
35.780	6.567	1.059	0.778
35.800	6.736	1.036	0.748
35.820	6.768	1.015	0.719
35.840	6.799	0.993	0.690
35.860	6.899	0.971	0.661
35.880	6.929	0.950	0.634
35.900	6.959	0.928	0.607
35.920	6.987	0.907	0.581
35.940	7.015	0.886	0.555
35.960	7.042	0.865	0.530
35.980	7.069	0.845	0.507
36.000	7.094	0.824	0.483
36.020	7.119	0.804	0.461
36.040	7.143	0.784	0.440
36.060	7.165	0.764	0.419
36.080	7.186	0.745	0.400
36.100	7.207	0.725	0.382
36.120	7.226	0.706	0.365
36.140	7.243	0.687	0.349
36.160	7.259	0.668	0.335
36.180	7.273	0.649	0.323
36.200	7.285	0.631	0.311
36.220	7.296	0.613	0.302
36.240	7.306	0.595	0.293
36.260	7.534	0.577	0.285
36.280	7.542	0.559	0.279
36.300	7.768	0.542	0.273
36.320	7.774	0.525	0.268
36.340	7.779	0.508	0.264
36.360	7.783	0.491	0.260
36.380	7.786	0.475	0.257
36.400	7.789	0.459	0.255
36.420	7.791	0.443	0.254
36.440	7.792	0.427	0.253
36.460	7.793	0.412	0.252
36.480	7.940	0.397	0.252
36.500	7.939	0.382	0.252
36.520	7.938	0.367	0.253
36.540	7.937	0.353	0.254
36.560	7.935	0.339	0.256
36.580	7.933	0.325	0.258
36.600	7.928	0.311	0.261
36.620	7.923	0.298	0.266
36.640	7.914	0.285	0.273
36.660	7.904	0.272	0.282
36.680	7.892	0.260	0.292
36.700	7.879	0.247	0.303
36.720	7.865	0.235	0.314
36.740	7.851	0.224	0.327
36.760	7.836	0.212	0.339
36.780	7.821	0.201	0.352
36.800	7.805	0.190	0.365
36.820	7.788	0.180	0.379
36.840	7.771	0.170	0.394
36.860	7.753	0.160	0.410
36.880	7.734	0.150	0.425
36.900	7.715	0.140	0.441
36.920	7.696	0.131	0.458
36.940	7.677	0.123	0.474
36.960	7.658	0.114	0.490
36.980	7.639	0.106	0.506
37.000	7.621	0.098	0.522
37.020	7.602	0.090	0.538
37.040	7.584	0.083	0.554
37.060	7.566	0.076	0.569
37.080	7.548	0.069	0.585
37.100	7.460	0.063	0.600
37.120	7.444	0.057	0.614
37.140	7.357	0.051	0.628
37.160	7.271	0.045	0.642
37.180	7.256	0.040	0.656
37.200	7.101	0.035	0.669
37.220	7.018	0.031	0.681
37.240	7.004	0.027	0.693
37.260	6.991	0.023	0.705
37.280	6.979	0.019	0.717
37.300	6.967	0.016	0.727
37.320	6.955	0.013	0.738
37.340	6.945	0.010	0.748
37.360	6.934	0.008	0.757
37.380	6.924	0.006	0.766
37.400	6.915	0.004	0.775
37.420	6.906	0.003	0.783
37.440	6.898	0.001	0.791
37.460	6.891	0.001	0.797
37.480	6.885	0.000	0.803
37.500	6.880	0.000	0.807
37.520	6.877	0.000	0.810
37.540	6.875	0.001	0.811
37.560	6.876	0.001	0.811
37.580	6.877	0.003	0.809
37.600	6.881	0.004	0.806
37.620	6.885	0.006	0.803
37.640	6.889	0.008	0.798
37.660	6.964	0.010	0.793
37.680	6.970	0.013	0.788
37.700	6.977	0.016	0.782
37.720	6.984	0.019	0.775
37.740	7.060	0.023	0.769
37.760	7.068	0.027	0.762
37.780	7.076	0.031	0.755
37.800	7.153	0.035	0.747
37.820	7.162	0.040	0.740
37.840	7.171	0.045	0.732
37.860	7.180	0.051	0.724
37.880	7.189	0.057	0.716
37.900	7.198	0.063	0.708
37.920	7.207	0.069	0.699
37.940	7.216	0.076	0.691
37.960	7.225	0.083	0.683
37.980	7.234	0.090	0.675
38.000	7.593	0.098	0.667
38.020	7.601	0.106	0.660
38.040	7.679	0.114	0.653
38.060	7.687	0.123	0.647
38.080	7.764	0.131	0.641
38.100	7.770	0.140	0.636
38.120	7.846	0.150	0.631
38.140	7.992	0.160	0.627
38.160	7.996	0.170	0.623
38.180	8.281	0.180	0.621
38.200	8.284	0.190	0.618
38.220	8.286	0.201	0.616
38.240	8.288	0.212	0.615
38.260	8.290	0.224	0.613
38.280	8.432	0.235	0.612
38.300	8.433	0.247	0.611
38.320	8.434	0.260	0.611
38.340	8.431	0.272	0.613
38.360	8.427	0.285	0.616
38.380	8.420	0.298	0.622
38.400	8.411	0.311	0.628
38.420	8.682	0.325	0.637
38.440	8.670	0.339	0.646
38.460	8.656	0.353	0.657
38.480	8.640	0.367	0.669
38.500	8.623	0.382	0.683
38.520	8.601	0.397	0.699
38.540	8.578	0.412	0.718
38.560	8.552	0.427	0.738
38.580	8.525	0.443	0.759
38.600	8.497	0.459	0.781
38.620	8.468	0.475	0.804
38.640	8.437	0.491	0.828
38.660	8.405	0.508	0.854
38.680	8.372	0.525	0.879
38.700	8.340	0.542	0.905
38.720	8.307	0.559	0.931
38.740	8.274	0.577	0.958
38.760	8.239	0.595	0.986
38.780	8.202	0.613	1.015
38.800	8.165	0.631	1.045
38.820	8.127	0.649	1.075
38.840	8.089	0.668	1.105
38.860	8.052	0.687	1.136
38.880	8.014	0.706	1.166
38.900	7.977	0.725	1.196
38.920	7.941	0.745	1.226
38.940	7.905	0.764	1.255
38.960	7.870	0.784	1.284
38.980	7.835	0.804	1.312
39.000	7.802	0.824	1.340
39.020	7.769	0.845	1.367
39.040	7.738	0.865	1.393
39.060	7.707	0.886	1.418
39.080	7.677	0.907	1.443
39.100	7.649	0.928	1.467
39.120	7.621	0.950	1.490
39.140	7.594	0.971	1.512
39.160	7.568	0.993	1.534
39.180	7.544	1.015	1.554
39.200	7.520	1.036	1.574
39.220	7.498	1.059	1.593
39.240	7.476	1.081	1.611
39.260	7.456	1.103	1.628
39.280	7.436	1.126	1.645
39.300	7.418	1.148	1.660
39.320	7.401	1.171	1.675
39.340	7.384	1.194	1.689
39.360	7.369	1.217	1.702
39.380	7.355	1.240	1.714
39.400	7.341	1.264	1.725
39.420	7.328	1.287	1.736
39.440	7.317	1.311	1.746
39.460	7.317	1.334	1.755
